* Sea-Bird SBE19plus Data File:
* FileName = C:\Users\Steve Constant\Desktop\CHRP2017\CTD\raw\chp32017017.hex
* Software Version 1.59
* Temperature SN =  6337
* Conductivity SN =  6337
* System UpLoad Time = May 26 2017 12:27:24
* ds
* SBE 19plus V 2.5.2  SERIAL NO. 6337    26 May 2017 08:26:09
* vbatt = 12.1, vlith =  8.2, ioper =  61.3 ma, ipump =  48.3 ma,
* iext01 =   5.8 ma, iext2345 =  86.7 ma
* status = not logging
* number of scans to average = 1
* samples = 300534, free = 2560254, casts = 22
* mode = profile, minimum cond freq = 3154, pump delay = 40 sec
* autorun = no, ignore magnetic switch = no
* battery type = alkaline, battery cutoff =  7.5 volts
* pressure sensor = strain gauge, range = 160.0
* SBE 38 = no, WETLABS = no, OPTODE = no, SBE63 = no, Gas Tension Device = no
* Ext Volt 0 = yes, Ext Volt 1 = yes
* Ext Volt 2 = yes, Ext Volt 3 = yes
* Ext Volt 4 = yes, Ext Volt 5 = yes
* echo characters = yes
* output format = raw HEX

* S>
*
* SBE 19plus V 2.5.2  SERIAL NO. 6337    26 May 2017 08:26:47
* temperature:  13-Jan-17
*     TA0 = 1.295807e-03
*     TA1 = 2.588888e-04
*     TA2 = 9.706836e-08
*     TA3 = 1.382757e-07
*     TOFFSET = 0.000000e+00
* conductivity:  13-Jan-17
*     G = -1.015047e+00
*     H = 1.449340e-01
*     I = -4.359138e-04
*     J = 5.256769e-05
*     CPCOR = -9.570000e-08
*     CTCOR = 3.250000e-06
*     CSLOPE = 1.000000e+00
* pressure S/N = 2882551, range = 160 psia:  11-Jan-17
*     PA0 = -1.431544e-01
*     PA1 = 4.887645e-04
*     PA2 = -6.439018e-12
*     PTCA0 = 5.240819e+05
*     PTCA1 = -1.723854e+01
*     PTCA2 = 1.164354e-01
*     PTCB0 = 2.491288e+01
*     PTCB1 = -1.025000e-03
*     PTCB2 = 0.000000e+00
*     PTEMPA0 = -6.474687e+01
*     PTEMPA1 = 5.145625e+01
*     PTEMPA2 = -2.579592e-01
*     POFFSET = 0.000000e+00
* volt 0: offset = -4.766105e-02, slope = 1.249330e+00
* volt 1: offset = -4.904947e-02, slope = 1.248985e+00
* volt 2: offset = -4.772842e-02, slope = 1.248965e+00
* volt 3: offset = -4.803053e-02, slope = 1.249328e+00
* volt 4: offset = -4.743158e-02, slope = 1.248557e+00
* volt 5: offset = -4.724737e-02, slope = 1.251092e+00
*     EXTFREQSF = 9.999918e-01
* dh
* cast  17 23 May 2017 08:34:19 samples 292039 to 293239, avg = 1, stop = mag switch

* S>
# nquan = 12
# nvalues = 757                                   
# units = specified
# name 0 = depFM: Depth [fresh water, m]
# name 1 = tv290C: Temperature [ITS-90, deg C]
# name 2 = c0uS/cm: Conductivity [uS/cm]
# name 3 = specc: Specific Conductance [uS/cm]
# name 4 = sbeox0Mg/L: Oxygen, SBE 43 [mg/l]
# name 5 = sbeox0PS: Oxygen, SBE 43 [% saturation]
# name 6 = par: PAR/Irradiance, Biospherical/Licor
# name 7 = CStarAt0: Beam Attenuation, WET Labs C-Star [1/m]
# name 8 = CStarTr0: Beam Transmission, WET Labs C-Star [%]
# name 9 = chloroflTC0: Chlorophyll, Turner Cyclops [ug/l]
# name 10 = phycyflTC0: Phycocyanin, Turner Cyclops [RFU]
# name 11 = flag:  0.000e+00
# span 0 =     -0.255,     15.628                 
# span 1 =    13.8730,    22.6034                 
# span 2 =  36.404367, 266.759315                 
# span 3 =     38.235,    324.892                 
# span 4 =    6.92694,   10.10980                 
# span 5 =   68.16229,  100.02810                 
# span 6 = 2.5012e+00, 4.6665e+03                 
# span 7 =     0.1659,    18.2482                 
# span 8 =     1.0441,    95.9375                 
# span 9 =     0.0000,     2.8673                 
# span 10 =     0.0000,     2.1276                
# span 11 = 0.0000e+00, 0.0000e+00                
# interval = seconds: 0.25
# start_time = May 23 2017 08:34:19 [Instrument's time stamp, header]
# bad_flag = -9.990e-29
# <Sensors count="9" >
#   <sensor Channel="1" >
#     <!-- Count, Temperature -->
#     <TemperatureSensor SensorID="58" >
#       <SerialNumber>6337</SerialNumber>
#       <CalibrationDate>13-Jan-17</CalibrationDate>
#       <A0>1.29580686e-003</A0>
#       <A1>2.58888790e-004</A1>
#       <A2>9.70683569e-008</A2>
#       <A3>1.38275720e-007</A3>
#       <Slope>1.00000000</Slope>
#       <Offset>0.0000</Offset>
#     </TemperatureSensor>
#   </sensor>
#   <sensor Channel="2" >
#     <!-- Frequency 0, Conductivity -->
#     <ConductivitySensor SensorID="3" >
#       <SerialNumber>6337</SerialNumber>
#       <CalibrationDate>13-Jan-17</CalibrationDate>
#       <UseG_J>1</UseG_J>
#       <!-- Cell const and series R are applicable only for wide range sensors. -->
#       <SeriesR>0.0000</SeriesR>
#       <CellConst>2000.0000</CellConst>
#       <ConductivityType>0</ConductivityType>
#       <Coefficients equation="0" >
#         <A>0.00000000e+000</A>
#         <B>0.00000000e+000</B>
#         <C>0.00000000e+000</C>
#         <D>0.00000000e+000</D>
#         <M>0.0</M>
#         <CPcor>-9.57000000e-008</CPcor>
#       </Coefficients>
#       <Coefficients equation="1" >
#         <G>-1.01504657e+000</G>
#         <H>1.44933984e-001</H>
#         <I>-4.35913838e-004</I>
#         <J>5.25676850e-005</J>
#         <CPcor>-9.57000000e-008</CPcor>
#         <CTcor>3.2500e-006</CTcor>
#         <!-- WBOTC not applicable unless ConductivityType = 1. -->
#         <WBOTC>0.00000000e+000</WBOTC>
#       </Coefficients>
#       <Slope>1.00000000</Slope>
#       <Offset>0.00000</Offset>
#     </ConductivitySensor>
#   </sensor>
#   <sensor Channel="3" >
#     <!-- Count, Pressure, Strain Gauge -->
#     <PressureSensor SensorID="46" >
#       <SerialNumber>6337</SerialNumber>
#       <CalibrationDate>11-Jan-17</CalibrationDate>
#       <PA0>-1.43154376e-001</PA0>
#       <PA1>4.88764480e-004</PA1>
#       <PA2>-6.43901847e-012</PA2>
#       <PTEMPA0>-6.47468750e+001</PTEMPA0>
#       <PTEMPA1>5.14562526e+001</PTEMPA1>
#       <PTEMPA2>-2.57959185e-001</PTEMPA2>
#       <PTCA0>5.24081949e+005</PTCA0>
#       <PTCA1>-1.72385379e+001</PTCA1>
#       <PTCA2>1.16435406e-001</PTCA2>
#       <PTCB0>2.49128750e+001</PTCB0>
#       <PTCB1>-1.02500000e-003</PTCB1>
#       <PTCB2>0.00000000e+000</PTCB2>
#       <Offset>0.000000</Offset>
#     </PressureSensor>
#   </sensor>
#   <sensor Channel="4" >
#     <!-- A/D voltage 0, Oxygen, SBE 43 -->
#     <OxygenSensor SensorID="38" >
#       <SerialNumber>2361</SerialNumber>
#       <CalibrationDate>20-Jan-17</CalibrationDate>
#       <Use2007Equation>1</Use2007Equation>
#       <CalibrationCoefficients equation="0" >
#         <!-- Coefficients for Owens-Millard equation. -->
#         <Boc>0.0000</Boc>
#         <Soc>0.0000e+000</Soc>
#         <offset>0.0000</offset>
#         <Pcor>0.00e+000</Pcor>
#         <Tcor>0.0000</Tcor>
#         <Tau>0.0</Tau>
#       </CalibrationCoefficients>
#       <CalibrationCoefficients equation="1" >
#         <!-- Coefficients for Sea-Bird equation - SBE calibration in 2007 and later. -->
#         <Soc>3.9698e-001</Soc>
#         <offset>-0.4986</offset>
#         <A>-3.9823e-003</A>
#         <B> 2.4447e-004</B>
#         <C>-3.3613e-006</C>
#         <D0> 2.5826e+000</D0>
#         <D1> 1.92634e-004</D1>
#         <D2>-4.64803e-002</D2>
#         <E> 3.6000e-002</E>
#         <Tau20> 1.0800</Tau20>
#         <H1>-3.3000e-002</H1>
#         <H2> 5.0000e+003</H2>
#         <H3> 1.4500e+003</H3>
#       </CalibrationCoefficients>
#     </OxygenSensor>
#   </sensor>
#   <sensor Channel="5" >
#     <!-- A/D voltage 1, Free -->
#   </sensor>
#   <sensor Channel="6" >
#     <!-- A/D voltage 2, PAR/Irradiance, Biospherical/Licor -->
#     <PAR_BiosphericalLicorChelseaSensor SensorID="42" >
#       <SerialNumber>70234</SerialNumber>
#       <CalibrationDate>11/29/16</CalibrationDate>
#       <M>1.00000000</M>
#       <B>0.00000000</B>
#       <CalibrationConstant>10917030568.00000000</CalibrationConstant>
#       <Multiplier>1.00000000</Multiplier>
#       <Offset>-0.09353959</Offset>
#     </PAR_BiosphericalLicorChelseaSensor>
#   </sensor>
#   <sensor Channel="7" >
#     <!-- A/D voltage 3, Transmissometer, WET Labs C-Star -->
#     <WET_LabsCStar SensorID="71" >
#       <SerialNumber>CST-484PR</SerialNumber>
#       <CalibrationDate>12/23/16</CalibrationDate>
#       <M>21.5610</M>
#       <B>-1.2721</B>
#       <PathLength>0.250</PathLength>
#     </WET_LabsCStar>
#   </sensor>
#   <sensor Channel="8" >
#     <!-- A/D voltage 4, Fluorometer, Turner Cyclops -->
#     <Fluorometer SensorID="68" >
#       <SerialNumber></SerialNumber>
#       <CalibrationDate></CalibrationDate>
#       <ScaleFactor>1.00000000e+000</ScaleFactor>
#       <Offset>0.00000000e+000</Offset>
#       <!-- 1 = C, Chlorophyll -->
#       <!-- 2 = R, Rhodamine -->
#       <!-- 3 = F, Fluorescein -->
#       <!-- 4 = P, Phycocyanin -->
#       <!-- 5 = E, Phycoerythrin -->
#       <!-- 6 = U, CDOM -->
#       <!-- 7 = O, CrudeOil -->
#       <!-- 8 = B, OpticalBrightness -->
#       <!-- 9 = T, Turbidity -->
#       <!-- 10 = G, Refined Fuels -->
#       <MeasuredParameter>4</MeasuredParameter>
#     </Fluorometer>
#   </sensor>
#   <sensor Channel="9" >
#     <!-- A/D voltage 5, Fluorometer, Turner Cyclops, 2 -->
#     <Fluorometer SensorID="68" >
#       <SerialNumber></SerialNumber>
#       <CalibrationDate></CalibrationDate>
#       <ScaleFactor>1.00000000e+000</ScaleFactor>
#       <Offset>0.00000000e+000</Offset>
#       <!-- 1 = C, Chlorophyll -->
#       <!-- 2 = R, Rhodamine -->
#       <!-- 3 = F, Fluorescein -->
#       <!-- 4 = P, Phycocyanin -->
#       <!-- 5 = E, Phycoerythrin -->
#       <!-- 6 = U, CDOM -->
#       <!-- 7 = O, CrudeOil -->
#       <!-- 8 = B, OpticalBrightness -->
#       <!-- 9 = T, Turbidity -->
#       <!-- 10 = G, Refined Fuels -->
#       <MeasuredParameter>1</MeasuredParameter>
#     </Fluorometer>
#   </sensor>
# </Sensors>
# datcnv_date = May 26 2017 13:03:36, 7.21d [datcnv_vars = 11]
# datcnv_in = C:\Users\Steve Constant\Desktop\CHRP2017\CTD\raw\CHRP3.hex C:\Users\Steve Constant\Desktop\CHRP2017\CTD\raw\SBE19plusV2_63372017.xmlcon
# datcnv_skipover = 0
# datcnv_ox_hysteresis_correction = yes
# datcnv_ox_tau_correction = yes
# file_type = ascii
*END*
     -0.255    22.6028  37.958807     39.866    8.47310   98.04762 4.4785e+03     0.3038    92.6869     0.6085     0.1649  0.000e+00
     -0.254    22.6019  37.928913     39.835    8.47225   98.03609 4.4935e+03     0.1659    95.9375     0.3818     0.1643  0.000e+00
     -0.254    22.6004  37.839231     39.742    8.47429   98.05680 4.4785e+03     0.1946    95.2515     0.2642     0.1608  0.000e+00
     -0.254    22.5989  37.540293     39.430    8.47307   98.03989 4.4809e+03     0.2734    93.3943     0.1714     0.1621  0.000e+00
     -0.253    22.5975  37.181573     39.054    8.47253   98.03091 4.4691e+03     0.2971    92.8416     0.0892     0.1688  0.000e+00
     -0.254    22.5977  36.882644     38.740    8.47038   98.00629 4.5316e+03     0.2739    93.3811     0.0565     0.1727  0.000e+00
     -0.255    22.5986  36.613612     38.456    8.47378   98.04728 4.6665e+03     0.2526    93.8796     0.0916     0.1759  0.000e+00
     -0.255    22.5995  36.523936     38.361    8.47401   98.05169 4.6640e+03     0.2519    93.8977     0.0863     0.1804  0.000e+00
     -0.254    22.5996  36.494044     38.330    8.47498   98.06314 2.2485e+03     0.2617    93.6674     0.0515     0.1777  0.000e+00
     -0.255    22.5997  36.434260     38.267    8.47439   98.05640 1.9537e+03     0.2665    93.5555     0.0572     0.1836  0.000e+00
     -0.255    22.6003  36.404367     38.235    8.47424   98.05574 1.9428e+03     0.2653    93.5818     0.0000     0.1886  0.000e+00
     -0.254    22.6005  36.912537     38.769    8.47457   98.06002 1.8919e+03     0.2619    93.6624     0.0000     0.1842  0.000e+00
     -0.255    22.6009  36.972322     38.831    8.47417   98.05610 1.9772e+03     0.2613    93.6756     0.0000     0.1861  0.000e+00
     -0.255    22.6013  37.241359     39.114    8.47512   98.06806 2.0289e+03     0.2614    93.6739     0.0000     0.1894  0.000e+00
     -0.254    22.6025  37.689761     39.583    8.47167   98.03050 2.0472e+03     0.2525    93.8829     0.0000     0.1872  0.000e+00
     -0.254    22.6034  37.181572     39.049    8.47324   98.05011 2.0805e+03     0.2517    93.9010     0.0000     0.1859  0.000e+00
     -0.254    22.6023  36.972322     38.830    8.47123   98.02474 2.1174e+03     0.2610    93.6838     0.3764     0.1715  0.000e+00
     -0.254    22.5824  37.600082     39.506    8.47698   98.05430 2.4331e+03     0.2655    93.5769     1.1591     0.1177  0.000e+00
     -0.254    22.5331  38.765975     40.773    8.48147   98.01419 2.8076e+03     0.2644    93.6049     1.7984     0.0671  0.000e+00
     -0.254    22.4869  41.157754     43.331    8.49056   98.03328 2.9883e+03     0.2618    93.6641     2.2249     0.0000  0.000e+00
     -0.254    22.4670  41.217554     43.412    8.49343   98.02903 3.6741e+03     0.2616    93.6690     2.5186     0.0000  0.000e+00
     -0.254    22.4643  41.785644     44.013    8.49261   98.01472 4.3575e+03     0.2616    93.6690     2.7012     0.0468  0.000e+00
     -0.253    22.4613  41.725845     43.953    8.49589   98.04700 2.3685e+03     0.2629    93.6394     2.7792     0.1955  0.000e+00
     -0.253    22.4515  41.815545     44.056    8.49475   98.01541 2.7174e+03     0.2588    93.7348     2.8341     0.2222  0.000e+00
     -0.253    22.4369  42.174349     44.448    8.49719   98.01625 1.7213e+03     0.2448    94.0638     2.8641     0.1160  0.000e+00
     -0.253    22.4198  42.443457     44.748    8.49952   98.01121 3.2042e+03     0.2509    93.9190     2.8673     0.1034  0.000e+00
     -0.253    22.4002  42.563063     44.892    8.50560   98.04457 4.0696e+03     0.2658    93.5703     2.6695     0.0743  0.000e+00
     -0.253    22.3774  42.682671     45.040    8.50731   98.02152 3.9367e+03     0.2731    93.4009     1.9849     0.0681  0.000e+00
     -0.253    22.3567  43.131196     45.533    8.51185   98.03515 3.8249e+03     0.2669    93.5456     1.7372     0.2084  0.000e+00
     -0.253    22.3447  43.310609     45.734    8.51392   98.03641 3.9402e+03     0.2600    93.7068     2.0170     0.2026  0.000e+00
     -0.253    22.3388  43.340512     45.772    8.50872   97.96544 4.2929e+03     0.2583    93.7463     2.2042     0.1177  0.000e+00
     -0.252    22.3361  42.862084     45.269    8.51253   98.00425 4.3300e+03     0.2618    93.6657     2.2905     0.1415  0.000e+00
     -0.253    22.3349  42.533171     44.923    8.51238   98.00012 2.5819e+03     0.2634    93.6262     2.4986     0.1553  0.000e+00
     -0.253    22.3323  42.114563     44.483    8.51246   97.99592 2.0511e+03     0.2631    93.6345     2.6941     0.1092  0.000e+00
     -0.253    22.3316  41.994962     44.357    8.51392   98.01146 2.1568e+03     0.2620    93.6608     2.4918     0.0513  0.000e+00
     -0.253    22.3358  41.845461     44.196    8.51400   98.02022 3.0676e+03     0.2616    93.6690     2.1885     0.0068  0.000e+00
     -0.252    22.3440  41.367067     43.683    8.51443   98.04045 3.3065e+03     0.2618    93.6641     1.6821     0.2687  0.000e+00
     -0.253    22.3527  40.978379     43.264    8.51297   98.03984 2.2779e+03     0.2624    93.6509     1.3775     0.2567  0.000e+00
     -0.252    22.3613  40.858784     43.130    8.51066   98.02930 2.2442e+03     0.2624    93.6509     1.3230     0.2491  0.000e+00
     -0.252    22.3680  40.559800     42.809    8.50948   98.02833 3.8397e+03     0.2625    93.6493     0.5765     0.7686  0.000e+00
     -0.252    22.3718  40.410310     42.647    8.50606   97.99597 3.6974e+03     0.2632    93.6312     0.5000     1.0150  0.000e+00
     -0.253    22.3744  40.230923     42.456    8.50826   98.02622 2.7631e+03     0.2636    93.6229     1.0208     0.8023  0.000e+00
     -0.252    22.3788  40.171128     42.389    8.50584   98.00654 3.6612e+03     0.2635    93.6246     0.6238     0.3149  0.000e+00
     -0.252    22.3849  40.529900     42.762    8.50552   98.01449 3.6114e+03     0.2632    93.6328     0.0063     0.0911  0.000e+00
     -0.252    22.3909  39.931948     42.126    8.50510   98.02057 3.6317e+03     0.2625    93.6476     0.5796     0.0626  0.000e+00
     -0.252    22.3958  39.752565     41.932    8.50853   98.06923 3.5603e+03     0.2632    93.6312     0.8684     0.0620  0.000e+00
     -0.252    22.3980  40.500000     42.718    8.50416   98.02325 1.6470e+03     0.2639    93.6164     0.5576     0.0000  0.000e+00
     -0.252    22.4003  41.097968     43.347    8.50602   98.04917 1.7499e+03     0.2632    93.6312     0.3467     0.0000  0.000e+00
     -0.252    22.4035  40.739184     42.966    8.50548   98.04890 1.7784e+03     0.2636    93.6229     0.2507     0.0895  0.000e+00
     -0.252    22.4037  40.380408     42.587    8.50459   98.03893 3.7649e+03     0.2641    93.6114     0.1776     0.7209  0.000e+00
     -0.252    22.3954  40.230921     42.437    8.50917   98.07607 3.8941e+03     0.2632    93.6312     0.1098     0.0000  0.000e+00
     -0.246    22.3766  40.230923     42.454    8.50649   98.00988 3.9388e+03     0.2652    93.5851     0.1257     0.0000  0.000e+00
     -0.243    22.3702  40.051539     42.270    8.50663   97.99958 3.9917e+03     0.2694    93.4864     0.1662     0.0000  0.000e+00
     -0.238    22.3631  39.931951     42.150    8.50836   98.00608 4.0298e+03     0.2789    93.2660     0.1405     0.0443  0.000e+00
     -0.249    21.8399  39.872225     42.557    8.58670   97.91848 4.0234e+03     0.2724    93.4173     0.3795     0.0156  0.000e+00
     -0.254    21.2053  39.722822     42.980    8.68051   97.77700 4.0362e+03     0.2672    93.5374     1.0098     0.0862  0.000e+00
     -0.251    21.0617  39.633150     43.017    8.70449   97.77282 3.9959e+03     0.2646    93.5999     0.4955     0.8341  0.000e+00
     -0.228    20.8751  39.543484     43.094    8.73401   97.74664 3.9126e+03     0.2652    93.5851     0.2702     2.1064  0.000e+00
     -0.216    19.6638  39.663227     44.397    8.92810   97.55292 3.8968e+03     0.2657    93.5736     0.1746     2.1276  0.000e+00
     -0.238    18.5823  41.158276     47.214    9.10677   97.36075 3.8289e+03     0.2645    93.6016     0.1605     1.6029  0.000e+00
     -0.255    17.9063  42.623488     49.666    9.22369   97.25785 1.9985e+03     0.2658    93.5703     0.2179     1.1387  0.000e+00
     -0.252    17.6873  44.058842     51.601    9.25947   97.19636 1.7694e+03     0.2653    93.5835     0.3105     0.2932  0.000e+00
     -0.251    17.6578  45.583989     53.425    9.26863   97.23362 1.6183e+03     0.2648    93.5933     0.3424     0.0000  0.000e+00
     -0.252    17.6747  46.869979     54.910    9.26308   97.20981 1.5570e+03     0.2648    93.5950     0.3001     0.0000  0.000e+00
     -0.252    17.7092  48.544877     56.826    9.25694   97.21493 1.6067e+03     0.2646    93.5983     0.2561     0.0000  0.000e+00
     -0.252    17.7661  50.279733     58.779    9.24909   97.24712 1.6070e+03     0.2648    93.5933     0.2088     0.0000  0.000e+00
     -0.252    17.8596  51.595921     60.186    9.23241   97.25901 1.6812e+03     0.2645    93.6016     0.2361     0.0000  0.000e+00
     -0.245    17.9497  52.882276     61.557    9.21997   97.30835 3.6362e+03     0.2644    93.6032     0.3386     0.1165  0.000e+00
     -0.219    17.9044  61.290565     71.420    9.22246   97.24675 3.7590e+03     0.2643    93.6065     0.3105     0.1111  0.000e+00
     -0.223    17.2769  54.587710     64.553    9.32959   97.10720 3.8593e+03     0.2639    93.6147     0.2364     0.0000  0.000e+00
     -0.250    16.7101  53.720173     64.391    9.43195   97.01796 3.9222e+03     0.2634    93.6279     0.0000     0.1791  0.000e+00
     -0.254    16.4869  52.284203     63.007    9.46999   96.95337 3.9188e+03     0.2634    93.6279     0.0000     0.2603  0.000e+00
