* Sea-Bird SBE19plus Data File:
* FileName = C:\Users\Steve Constant\Desktop\CHRP2017\CTD\raw\chp32017021.hex
* Software Version 1.59
* Temperature SN =  6337
* Conductivity SN =  6337
* System UpLoad Time = May 26 2017 12:34:01
* ds
* SBE 19plus V 2.5.2  SERIAL NO. 6337    26 May 2017 08:26:09
* vbatt = 12.1, vlith =  8.2, ioper =  61.3 ma, ipump =  48.3 ma,
* iext01 =   5.8 ma, iext2345 =  86.7 ma
* status = not logging
* number of scans to average = 1
* samples = 300534, free = 2560254, casts = 22
* mode = profile, minimum cond freq = 3154, pump delay = 40 sec
* autorun = no, ignore magnetic switch = no
* battery type = alkaline, battery cutoff =  7.5 volts
* pressure sensor = strain gauge, range = 160.0
* SBE 38 = no, WETLABS = no, OPTODE = no, SBE63 = no, Gas Tension Device = no
* Ext Volt 0 = yes, Ext Volt 1 = yes
* Ext Volt 2 = yes, Ext Volt 3 = yes
* Ext Volt 4 = yes, Ext Volt 5 = yes
* echo characters = yes
* output format = raw HEX

* S>
*
* SBE 19plus V 2.5.2  SERIAL NO. 6337    26 May 2017 08:26:47
* temperature:  13-Jan-17
*     TA0 = 1.295807e-03
*     TA1 = 2.588888e-04
*     TA2 = 9.706836e-08
*     TA3 = 1.382757e-07
*     TOFFSET = 0.000000e+00
* conductivity:  13-Jan-17
*     G = -1.015047e+00
*     H = 1.449340e-01
*     I = -4.359138e-04
*     J = 5.256769e-05
*     CPCOR = -9.570000e-08
*     CTCOR = 3.250000e-06
*     CSLOPE = 1.000000e+00
* pressure S/N = 2882551, range = 160 psia:  11-Jan-17
*     PA0 = -1.431544e-01
*     PA1 = 4.887645e-04
*     PA2 = -6.439018e-12
*     PTCA0 = 5.240819e+05
*     PTCA1 = -1.723854e+01
*     PTCA2 = 1.164354e-01
*     PTCB0 = 2.491288e+01
*     PTCB1 = -1.025000e-03
*     PTCB2 = 0.000000e+00
*     PTEMPA0 = -6.474687e+01
*     PTEMPA1 = 5.145625e+01
*     PTEMPA2 = -2.579592e-01
*     POFFSET = 0.000000e+00
* volt 0: offset = -4.766105e-02, slope = 1.249330e+00
* volt 1: offset = -4.904947e-02, slope = 1.248985e+00
* volt 2: offset = -4.772842e-02, slope = 1.248965e+00
* volt 3: offset = -4.803053e-02, slope = 1.249328e+00
* volt 4: offset = -4.743158e-02, slope = 1.248557e+00
* volt 5: offset = -4.724737e-02, slope = 1.251092e+00
*     EXTFREQSF = 9.999918e-01
* dh
* cast  21 24 May 2017 04:24:18 samples 298080 to 299100, avg = 1, stop = mag switch

* S>
# nquan = 12
# nvalues = 595                                   
# units = specified
# name 0 = depFM: Depth [fresh water, m]
# name 1 = tv290C: Temperature [ITS-90, deg C]
# name 2 = c0uS/cm: Conductivity [uS/cm]
# name 3 = specc: Specific Conductance [uS/cm]
# name 4 = sbeox0Mg/L: Oxygen, SBE 43 [mg/l]
# name 5 = sbeox0PS: Oxygen, SBE 43 [% saturation]
# name 6 = par: PAR/Irradiance, Biospherical/Licor
# name 7 = CStarAt0: Beam Attenuation, WET Labs C-Star [1/m]
# name 8 = CStarTr0: Beam Transmission, WET Labs C-Star [%]
# name 9 = chloroflTC0: Chlorophyll, Turner Cyclops [ug/l]
# name 10 = phycyflTC0: Phycocyanin, Turner Cyclops [RFU]
# name 11 = flag:  0.000e+00
# span 0 =     -0.332,     15.094                 
# span 1 =    11.0335,    15.5502                 
# span 2 =   5.459983, 228.043537                 
# span 3 =      6.738,    294.571                 
# span 4 =    6.83928,   10.02831                 
# span 5 =   65.65841,   97.01413                 
# span 6 = 1.7806e+00, 5.6090e+02                 
# span 7 =     0.6876,    16.8973                 
# span 8 =     1.4635,    84.2070                 
# span 9 =     0.0357,     0.4543                 
# span 10 =     0.0000,     0.1505                
# span 11 = 0.0000e+00, 0.0000e+00                
# interval = seconds: 0.25
# start_time = May 24 2017 04:24:18 [Instrument's time stamp, header]
# bad_flag = -9.990e-29
# <Sensors count="9" >
#   <sensor Channel="1" >
#     <!-- Count, Temperature -->
#     <TemperatureSensor SensorID="58" >
#       <SerialNumber>6337</SerialNumber>
#       <CalibrationDate>13-Jan-17</CalibrationDate>
#       <A0>1.29580686e-003</A0>
#       <A1>2.58888790e-004</A1>
#       <A2>9.70683569e-008</A2>
#       <A3>1.38275720e-007</A3>
#       <Slope>1.00000000</Slope>
#       <Offset>0.0000</Offset>
#     </TemperatureSensor>
#   </sensor>
#   <sensor Channel="2" >
#     <!-- Frequency 0, Conductivity -->
#     <ConductivitySensor SensorID="3" >
#       <SerialNumber>6337</SerialNumber>
#       <CalibrationDate>13-Jan-17</CalibrationDate>
#       <UseG_J>1</UseG_J>
#       <!-- Cell const and series R are applicable only for wide range sensors. -->
#       <SeriesR>0.0000</SeriesR>
#       <CellConst>2000.0000</CellConst>
#       <ConductivityType>0</ConductivityType>
#       <Coefficients equation="0" >
#         <A>0.00000000e+000</A>
#         <B>0.00000000e+000</B>
#         <C>0.00000000e+000</C>
#         <D>0.00000000e+000</D>
#         <M>0.0</M>
#         <CPcor>-9.57000000e-008</CPcor>
#       </Coefficients>
#       <Coefficients equation="1" >
#         <G>-1.01504657e+000</G>
#         <H>1.44933984e-001</H>
#         <I>-4.35913838e-004</I>
#         <J>5.25676850e-005</J>
#         <CPcor>-9.57000000e-008</CPcor>
#         <CTcor>3.2500e-006</CTcor>
#         <!-- WBOTC not applicable unless ConductivityType = 1. -->
#         <WBOTC>0.00000000e+000</WBOTC>
#       </Coefficients>
#       <Slope>1.00000000</Slope>
#       <Offset>0.00000</Offset>
#     </ConductivitySensor>
#   </sensor>
#   <sensor Channel="3" >
#     <!-- Count, Pressure, Strain Gauge -->
#     <PressureSensor SensorID="46" >
#       <SerialNumber>6337</SerialNumber>
#       <CalibrationDate>11-Jan-17</CalibrationDate>
#       <PA0>-1.43154376e-001</PA0>
#       <PA1>4.88764480e-004</PA1>
#       <PA2>-6.43901847e-012</PA2>
#       <PTEMPA0>-6.47468750e+001</PTEMPA0>
#       <PTEMPA1>5.14562526e+001</PTEMPA1>
#       <PTEMPA2>-2.57959185e-001</PTEMPA2>
#       <PTCA0>5.24081949e+005</PTCA0>
#       <PTCA1>-1.72385379e+001</PTCA1>
#       <PTCA2>1.16435406e-001</PTCA2>
#       <PTCB0>2.49128750e+001</PTCB0>
#       <PTCB1>-1.02500000e-003</PTCB1>
#       <PTCB2>0.00000000e+000</PTCB2>
#       <Offset>0.000000</Offset>
#     </PressureSensor>
#   </sensor>
#   <sensor Channel="4" >
#     <!-- A/D voltage 0, Oxygen, SBE 43 -->
#     <OxygenSensor SensorID="38" >
#       <SerialNumber>2361</SerialNumber>
#       <CalibrationDate>20-Jan-17</CalibrationDate>
#       <Use2007Equation>1</Use2007Equation>
#       <CalibrationCoefficients equation="0" >
#         <!-- Coefficients for Owens-Millard equation. -->
#         <Boc>0.0000</Boc>
#         <Soc>0.0000e+000</Soc>
#         <offset>0.0000</offset>
#         <Pcor>0.00e+000</Pcor>
#         <Tcor>0.0000</Tcor>
#         <Tau>0.0</Tau>
#       </CalibrationCoefficients>
#       <CalibrationCoefficients equation="1" >
#         <!-- Coefficients for Sea-Bird equation - SBE calibration in 2007 and later. -->
#         <Soc>3.9698e-001</Soc>
#         <offset>-0.4986</offset>
#         <A>-3.9823e-003</A>
#         <B> 2.4447e-004</B>
#         <C>-3.3613e-006</C>
#         <D0> 2.5826e+000</D0>
#         <D1> 1.92634e-004</D1>
#         <D2>-4.64803e-002</D2>
#         <E> 3.6000e-002</E>
#         <Tau20> 1.0800</Tau20>
#         <H1>-3.3000e-002</H1>
#         <H2> 5.0000e+003</H2>
#         <H3> 1.4500e+003</H3>
#       </CalibrationCoefficients>
#     </OxygenSensor>
#   </sensor>
#   <sensor Channel="5" >
#     <!-- A/D voltage 1, Free -->
#   </sensor>
#   <sensor Channel="6" >
#     <!-- A/D voltage 2, PAR/Irradiance, Biospherical/Licor -->
#     <PAR_BiosphericalLicorChelseaSensor SensorID="42" >
#       <SerialNumber>70234</SerialNumber>
#       <CalibrationDate>11/29/16</CalibrationDate>
#       <M>1.00000000</M>
#       <B>0.00000000</B>
#       <CalibrationConstant>10917030568.00000000</CalibrationConstant>
#       <Multiplier>1.00000000</Multiplier>
#       <Offset>-0.09353959</Offset>
#     </PAR_BiosphericalLicorChelseaSensor>
#   </sensor>
#   <sensor Channel="7" >
#     <!-- A/D voltage 3, Transmissometer, WET Labs C-Star -->
#     <WET_LabsCStar SensorID="71" >
#       <SerialNumber>CST-484PR</SerialNumber>
#       <CalibrationDate>12/23/16</CalibrationDate>
#       <M>21.5610</M>
#       <B>-1.2721</B>
#       <PathLength>0.250</PathLength>
#     </WET_LabsCStar>
#   </sensor>
#   <sensor Channel="8" >
#     <!-- A/D voltage 4, Fluorometer, Turner Cyclops -->
#     <Fluorometer SensorID="68" >
#       <SerialNumber></SerialNumber>
#       <CalibrationDate></CalibrationDate>
#       <ScaleFactor>1.00000000e+000</ScaleFactor>
#       <Offset>0.00000000e+000</Offset>
#       <!-- 1 = C, Chlorophyll -->
#       <!-- 2 = R, Rhodamine -->
#       <!-- 3 = F, Fluorescein -->
#       <!-- 4 = P, Phycocyanin -->
#       <!-- 5 = E, Phycoerythrin -->
#       <!-- 6 = U, CDOM -->
#       <!-- 7 = O, CrudeOil -->
#       <!-- 8 = B, OpticalBrightness -->
#       <!-- 9 = T, Turbidity -->
#       <!-- 10 = G, Refined Fuels -->
#       <MeasuredParameter>4</MeasuredParameter>
#     </Fluorometer>
#   </sensor>
#   <sensor Channel="9" >
#     <!-- A/D voltage 5, Fluorometer, Turner Cyclops, 2 -->
#     <Fluorometer SensorID="68" >
#       <SerialNumber></SerialNumber>
#       <CalibrationDate></CalibrationDate>
#       <ScaleFactor>1.00000000e+000</ScaleFactor>
#       <Offset>0.00000000e+000</Offset>
#       <!-- 1 = C, Chlorophyll -->
#       <!-- 2 = R, Rhodamine -->
#       <!-- 3 = F, Fluorescein -->
#       <!-- 4 = P, Phycocyanin -->
#       <!-- 5 = E, Phycoerythrin -->
#       <!-- 6 = U, CDOM -->
#       <!-- 7 = O, CrudeOil -->
#       <!-- 8 = B, OpticalBrightness -->
#       <!-- 9 = T, Turbidity -->
#       <!-- 10 = G, Refined Fuels -->
#       <MeasuredParameter>1</MeasuredParameter>
#     </Fluorometer>
#   </sensor>
# </Sensors>
# datcnv_date = May 26 2017 13:03:39, 7.21d [datcnv_vars = 11]
# datcnv_in = C:\Users\Steve Constant\Desktop\CHRP2017\CTD\raw\CHRP8.hex C:\Users\Steve Constant\Desktop\CHRP2017\CTD\raw\SBE19plusV2_63372017.xmlcon
# datcnv_skipover = 0
# datcnv_ox_hysteresis_correction = yes
# datcnv_ox_tau_correction = yes
# file_type = ascii
*END*
     -0.330    15.5502  10.773477     13.283    9.41329   94.46455 5.0584e+02     4.1798    35.1712     0.0404     0.0188  0.000e+00
     -0.329    15.5487  10.295803     12.694    9.41440   94.47246 5.0798e+02     4.0921    35.9509     0.0407     0.0174  0.000e+00
     -0.329    15.5469   9.818140     12.106    9.41451   94.46980 5.1789e+02     4.1429    35.4969     0.0400     0.0190  0.000e+00
     -0.330    15.5451   9.549459     11.775    9.41932   94.51427 5.2421e+02     4.1854    35.1219     0.0381     0.0195  0.000e+00
     -0.330    15.5432   9.340488     11.518    9.42617   94.57932 5.2008e+02     4.1561    35.3801     0.0400     0.0189  0.000e+00
     -0.330    15.5370   9.131519     11.262    9.43144   94.61949 5.0664e+02     4.1029    35.8539     0.0421     0.0197  0.000e+00
     -0.330    15.5298   9.041961     11.154    9.43870   94.67765 4.9494e+02     4.0680    36.1681     0.0413     0.0201  0.000e+00
     -0.330    15.5269   8.773291     10.823    9.44435   94.72849 4.9668e+02     4.0580    36.2585     0.0408     0.0188  0.000e+00
     -0.330    15.5269   8.713587     10.749    9.44621   94.74713 4.9721e+02     4.0473    36.3556     0.0424     0.0192  0.000e+00
     -0.330    15.5277   8.474773     10.455    9.44914   94.77794 4.8777e+02     4.0256    36.5530     0.0429     0.0194  0.000e+00
     -0.330    15.5263   8.415070     10.381    9.44631   94.74669 4.7961e+02     3.9975    36.8113     0.0413     0.0186  0.000e+00
     -0.330    15.5193   8.086706      9.978    9.45082   94.77771 4.7651e+02     3.9739    37.0284     0.0407     0.0179  0.000e+00
     -0.330    15.5124   7.907600      9.759    9.44401   94.69540 4.5595e+02     3.9525    37.2275     0.0410     0.0175  0.000e+00
     -0.331    15.5111   7.758347      9.575    9.45168   94.76953 4.3789e+02     3.9277    37.4594     0.0400     0.0172  0.000e+00
     -0.330    15.5125   7.668795      9.464    9.45678   94.82367 4.3850e+02     3.9054    37.6683     0.0401     0.0169  0.000e+00
     -0.330    15.5103   7.668795      9.464    9.46718   94.92348 4.4675e+02     3.8814    37.8953     0.0412     0.0184  0.000e+00
     -0.330    15.5037   7.489694      9.245    9.46397   94.87763 4.5941e+02     3.8583    38.1141     0.0401     0.0188  0.000e+00
     -0.331    15.5028   7.459844      9.208    9.47130   94.94953 4.5563e+02     3.8358    38.3296     0.0401     0.0219  0.000e+00
     -0.331    15.5057   7.250894      8.950    9.47442   94.98659 4.6346e+02     3.8134    38.5451     0.0410     0.0227  0.000e+00
     -0.331    15.5096   7.221044      8.912    9.47154   94.96562 4.6411e+02     3.7885    38.7853     0.0395     0.0221  0.000e+00
     -0.331    15.5128   7.101645      8.764    9.46786   94.93519 4.7076e+02     3.7653    39.0106     0.0393     0.0202  0.000e+00
     -0.331    15.5153   6.982247      8.616    9.46968   94.95846 4.8376e+02     3.7455    39.2047     0.0369     0.0206  0.000e+00
     -0.331    15.5128   6.833000      8.432    9.46340   94.89041 5.1981e+02     3.7274    39.3824     0.0388     0.0185  0.000e+00
     -0.331    15.5047   6.713604      8.287    9.46901   94.93006 5.3210e+02     3.7104    39.5502     0.0404     0.0173  0.000e+00
     -0.331    15.4943   6.534511      8.068    9.46446   94.86326 5.3594e+02     3.6882    39.7706     0.0391     0.0166  0.000e+00
     -0.331    15.4912   6.534511      8.068    9.46543   94.86672 5.3840e+02     3.6662    39.9894     0.0426     0.0153  0.000e+00
     -0.331    15.4914   6.444965      7.958    9.47005   94.91345 5.3783e+02     3.6478    40.1736     0.0397     0.0143  0.000e+00
     -0.331    15.4915   6.415116      7.921    9.47434   94.95664 5.4086e+02     3.6266    40.3875     0.0417     0.0124  0.000e+00
     -0.331    15.4894   6.265874      7.737    9.47360   94.94494 5.4477e+02     3.6063    40.5931     0.0426     0.0115  0.000e+00
     -0.331    15.4868   6.236025      7.701    9.47439   94.94751 5.4862e+02     3.5808    40.8530     0.0416     0.0119  0.000e+00
     -0.331    15.4783   6.265874      7.739    9.47939   94.98034 5.4785e+02     3.5563    41.1031     0.0386     0.0124  0.000e+00
     -0.330    15.4657   6.146481      7.594    9.48252   94.98605 5.4698e+02     3.5297    41.3778     0.0388     0.0127  0.000e+00
     -0.331    15.4523   6.176330      7.633    9.48533   94.98683 5.4324e+02     3.5053    41.6311     0.0411     0.0157  0.000e+00
     -0.331    15.4400   6.086785      7.525    9.48960   95.00469 5.4267e+02     3.4757    41.9404     0.0425     0.0159  0.000e+00
     -0.331    15.4315   5.967393      7.379    9.49179   95.00931 5.4277e+02     3.4452    42.2611     0.0429     0.0188  0.000e+00
     -0.331    15.4288   6.027089      7.453    9.49193   95.00524 5.4602e+02     3.4182    42.5474     0.0417     0.0230  0.000e+00
     -0.331    15.4249   5.967393      7.380    9.49501   95.02795 5.5317e+02     3.3871    42.8797     0.0407     0.0159  0.000e+00
     -0.330    15.4173   5.877850      7.271    9.49359   94.99835 5.5550e+02     3.3625    43.1445     0.0396     0.0163  0.000e+00
     -0.331    15.4042   5.907698      7.310    9.49685   95.00437 5.5570e+02     3.3375    43.4143     0.0388     0.0166  0.000e+00
     -0.331    15.3889   5.848003      7.239    9.50043   95.00898 5.5123e+02     3.3133    43.6775     0.0376     0.0204  0.000e+00
     -0.331    15.3756   5.818155      7.204    9.50135   94.99113 5.4679e+02     3.2860    43.9769     0.0364     0.0204  0.000e+00
     -0.331    15.3648   5.788308      7.169    9.51176   95.07293 5.5035e+02     3.2568    44.2993     0.0357     0.0206  0.000e+00
     -0.331    15.3634   5.788308      7.170    9.51220   95.07449 5.5006e+02     3.2367    44.5230     0.0363     0.0081  0.000e+00
     -0.331    15.3674   5.758460      7.132    9.51349   95.09557 5.5677e+02     3.2093    44.8290     0.0390     0.0118  0.000e+00
     -0.331    15.3723   5.728612      7.094    9.51163   95.08717 5.5972e+02     3.1914    45.0297     0.0398     0.0108  0.000e+00
     -0.331    15.3814   5.668917      7.019    9.51191   95.10838 5.6090e+02     3.1704    45.2666     0.0406     0.0117  0.000e+00
     -0.331    15.3918   5.668917      7.017    9.50736   95.08402 5.5952e+02     3.1529    45.4656     0.0394     0.0088  0.000e+00
     -0.331    15.4021   5.579374      6.904    9.50113   95.04275 5.5161e+02     3.1352    45.6663     0.0396     0.0106  0.000e+00
     -0.331    15.4109   5.579374      6.903    9.50699   95.11925 5.4679e+02     3.1167    45.8785     0.0400     0.0148  0.000e+00
     -0.331    15.4200   5.579374      6.901    9.50065   95.07430 5.4239e+02     3.0998    46.0726     0.0394     0.0105  0.000e+00
     -0.332    15.4294   5.639069      6.973    9.49648   95.05182 5.4363e+02     3.0769    46.3375     0.0424     0.0152  0.000e+00
     -0.332    15.4376   5.609221      6.935    9.49063   95.00998 5.4612e+02     3.0626    46.5036     0.0414     0.0436  0.000e+00
     -0.331    15.4462   5.728611      7.081    9.48756   94.99683 5.4756e+02     3.0407    46.7586     0.0409     0.0386  0.000e+00
     -0.331    15.4556   5.609221      6.932    9.48535   94.99378 5.5482e+02     3.0199    47.0020     0.0427     0.0323  0.000e+00
     -0.331    15.4646   5.728610      7.078    9.47980   94.95658 5.5355e+02     2.9966    47.2768     0.0431     0.0244  0.000e+00
     -0.331    15.4717   5.668915      7.003    9.47933   94.96619 5.5560e+02     2.9733    47.5531     0.0420     0.0155  0.000e+00
     -0.331    15.4742   5.668915      7.002    9.47316   94.90958 5.5307e+02     2.9472    47.8640     0.0407     0.0110  0.000e+00
     -0.330    15.4731   5.668915      7.003    9.47373   94.91304 5.5307e+02     2.9212    48.1766     0.0423     0.0067  0.000e+00
     -0.330    15.4745   5.639068      6.966    9.46947   94.87318 5.5132e+02     2.8976    48.4612     0.0423     0.0117  0.000e+00
     -0.331    15.4706   5.668915      7.003    9.46962   94.86684 5.5006e+02     2.8733    48.7573     0.0422     0.0175  0.000e+00
     -0.331    15.4627   5.668915      7.004    9.46987   94.85305 5.4640e+02     2.8465    49.0846     0.0388     0.0168  0.000e+00
     -0.330    15.4610   5.728611      7.079    9.47100   94.86095 5.4660e+02     2.8143    49.4810     0.0372     0.0128  0.000e+00
     -0.331    15.4630   5.728610      7.078    9.47224   94.87741 5.4775e+02     2.7860    49.8331     0.0369     0.0144  0.000e+00
     -0.331    15.4612   5.668915      7.005    9.47388   94.89026 5.4229e+02     2.7562    50.2048     0.0402     0.0141  0.000e+00
     -0.331    15.4613   5.758458      7.115    9.47926   94.94434 5.4124e+02     2.7291    50.5470     0.0401     0.0186  0.000e+00
     -0.331    15.4655   5.728610      7.078    9.47882   94.94853 5.4086e+02     2.6988    50.9303     0.0390     0.0205  0.000e+00
     -0.330    15.4706   5.668915      7.003    9.47898   94.96043 5.3830e+02     2.6764    51.2165     0.0401     0.0208  0.000e+00
     -0.330    15.4749   5.728610      7.076    9.47417   94.92104 5.3566e+02     2.6521    51.5291     0.0426     0.0130  0.000e+00
     -0.330    15.4797   5.668915      7.002    9.47428   94.93199 5.3764e+02     2.6303    51.8104     0.0455     0.0166  0.000e+00
     -0.331    15.4852   5.668915      7.001    9.47090   94.90929 5.3679e+02     2.6132    52.0324     0.0434     0.0192  0.000e+00
     -0.331    15.4903   5.728610      7.073    9.47516   94.96226 5.3294e+02     2.5972    52.2414     0.0393     0.0050  0.000e+00
     -0.330    15.4928   5.728610      7.073    9.47327   94.94844 5.3416e+02     2.5864    52.3828     0.0401     0.0436  0.000e+00
