* Sea-Bird SBE19plus Data File:
* FileName = C:\Users\Steve Constant\Desktop\CHRP2017\CTD\raw\CHRP2015.hex
* Software Version 1.59
* Temperature SN =  6337
* Conductivity SN =  6337
* System UpLoad Time = May 26 2017 12:22:52
* ds
* SBE 19plus V 2.5.2  SERIAL NO. 6337    26 May 2017 08:22:16
* vbatt = 12.1, vlith =  8.2, ioper =  61.5 ma, ipump =  44.7 ma,
* iext01 =   4.2 ma, iext2345 =  90.6 ma
* status = not logging
* number of scans to average = 1
* samples = 300534, free = 2560254, casts = 22
* mode = profile, minimum cond freq = 3154, pump delay = 40 sec
* autorun = no, ignore magnetic switch = no
* battery type = alkaline, battery cutoff =  7.5 volts
* pressure sensor = strain gauge, range = 160.0
* SBE 38 = no, WETLABS = no, OPTODE = no, SBE63 = no, Gas Tension Device = no
* Ext Volt 0 = yes, Ext Volt 1 = yes
* Ext Volt 2 = yes, Ext Volt 3 = yes
* Ext Volt 4 = yes, Ext Volt 5 = yes
* echo characters = yes
* output format = raw HEX

* S>
*
* SBE 19plus V 2.5.2  SERIAL NO. 6337    26 May 2017 08:22:33
* temperature:  13-Jan-17
*     TA0 = 1.295807e-03
*     TA1 = 2.588888e-04
*     TA2 = 9.706836e-08
*     TA3 = 1.382757e-07
*     TOFFSET = 0.000000e+00
* conductivity:  13-Jan-17
*     G = -1.015047e+00
*     H = 1.449340e-01
*     I = -4.359138e-04
*     J = 5.256769e-05
*     CPCOR = -9.570000e-08
*     CTCOR = 3.250000e-06
*     CSLOPE = 1.000000e+00
* pressure S/N = 2882551, range = 160 psia:  11-Jan-17
*     PA0 = -1.431544e-01
*     PA1 = 4.887645e-04
*     PA2 = -6.439018e-12
*     PTCA0 = 5.240819e+05
*     PTCA1 = -1.723854e+01
*     PTCA2 = 1.164354e-01
*     PTCB0 = 2.491288e+01
*     PTCB1 = -1.025000e-03
*     PTCB2 = 0.000000e+00
*     PTEMPA0 = -6.474687e+01
*     PTEMPA1 = 5.145625e+01
*     PTEMPA2 = -2.579592e-01
*     POFFSET = 0.000000e+00
* volt 0: offset = -4.766105e-02, slope = 1.249330e+00
* volt 1: offset = -4.904947e-02, slope = 1.248985e+00
* volt 2: offset = -4.772842e-02, slope = 1.248965e+00
* volt 3: offset = -4.803053e-02, slope = 1.249328e+00
* volt 4: offset = -4.743158e-02, slope = 1.248557e+00
* volt 5: offset = -4.724737e-02, slope = 1.251092e+00
*     EXTFREQSF = 9.999918e-01
* dh
* cast  15 22 May 2017 12:48:20 samples 7503 to 292009, avg = 1, stop = mag switch

* S>
# nquan = 12
# nvalues = 854                                   
# units = specified
# name 0 = depFM: Depth [fresh water, m]
# name 1 = tv290C: Temperature [ITS-90, deg C]
# name 2 = c0uS/cm: Conductivity [uS/cm]
# name 3 = specc: Specific Conductance [uS/cm]
# name 4 = sbeox0Mg/L: Oxygen, SBE 43 [mg/l]
# name 5 = sbeox0PS: Oxygen, SBE 43 [% saturation]
# name 6 = par: PAR/Irradiance, Biospherical/Licor
# name 7 = CStarAt0: Beam Attenuation, WET Labs C-Star [1/m]
# name 8 = CStarTr0: Beam Transmission, WET Labs C-Star [%]
# name 9 = chloroflTC0: Chlorophyll, Turner Cyclops [ug/l]
# name 10 = phycyflTC0: Phycocyanin, Turner Cyclops [RFU]
# name 11 = flag:  0.000e+00
# span 0 =     -0.207,     13.097                 
# span 1 =    13.9563,    24.4862                 
# span 2 =   6.265699, 234.711471                 
# span 3 =      6.375,    287.691                 
# span 4 =    7.98185,   10.11798                 
# span 5 =   79.58132,  102.78364                 
# span 6 = 1.0000e-12, 5.6543e+03                 
# span 7 =     0.1697,    13.4398                 
# span 8 =     3.4737,    95.8470                 
# span 9 =     0.2876,     2.3915                 
# span 10 =     0.0000,     0.4546                
# span 11 = 0.0000e+00, 0.0000e+00                
# interval = seconds: 0.25
# start_time = May 22 2017 12:48:20 [Instrument's time stamp, header]
# bad_flag = -9.990e-29
# <Sensors count="9" >
#   <sensor Channel="1" >
#     <!-- Count, Temperature -->
#     <TemperatureSensor SensorID="58" >
#       <SerialNumber>6337</SerialNumber>
#       <CalibrationDate>13-Jan-17</CalibrationDate>
#       <A0>1.29580686e-003</A0>
#       <A1>2.58888790e-004</A1>
#       <A2>9.70683569e-008</A2>
#       <A3>1.38275720e-007</A3>
#       <Slope>1.00000000</Slope>
#       <Offset>0.0000</Offset>
#     </TemperatureSensor>
#   </sensor>
#   <sensor Channel="2" >
#     <!-- Frequency 0, Conductivity -->
#     <ConductivitySensor SensorID="3" >
#       <SerialNumber>6337</SerialNumber>
#       <CalibrationDate>13-Jan-17</CalibrationDate>
#       <UseG_J>1</UseG_J>
#       <!-- Cell const and series R are applicable only for wide range sensors. -->
#       <SeriesR>0.0000</SeriesR>
#       <CellConst>2000.0000</CellConst>
#       <ConductivityType>0</ConductivityType>
#       <Coefficients equation="0" >
#         <A>0.00000000e+000</A>
#         <B>0.00000000e+000</B>
#         <C>0.00000000e+000</C>
#         <D>0.00000000e+000</D>
#         <M>0.0</M>
#         <CPcor>-9.57000000e-008</CPcor>
#       </Coefficients>
#       <Coefficients equation="1" >
#         <G>-1.01504657e+000</G>
#         <H>1.44933984e-001</H>
#         <I>-4.35913838e-004</I>
#         <J>5.25676850e-005</J>
#         <CPcor>-9.57000000e-008</CPcor>
#         <CTcor>3.2500e-006</CTcor>
#         <!-- WBOTC not applicable unless ConductivityType = 1. -->
#         <WBOTC>0.00000000e+000</WBOTC>
#       </Coefficients>
#       <Slope>1.00000000</Slope>
#       <Offset>0.00000</Offset>
#     </ConductivitySensor>
#   </sensor>
#   <sensor Channel="3" >
#     <!-- Count, Pressure, Strain Gauge -->
#     <PressureSensor SensorID="46" >
#       <SerialNumber>6337</SerialNumber>
#       <CalibrationDate>11-Jan-17</CalibrationDate>
#       <PA0>-1.43154376e-001</PA0>
#       <PA1>4.88764480e-004</PA1>
#       <PA2>-6.43901847e-012</PA2>
#       <PTEMPA0>-6.47468750e+001</PTEMPA0>
#       <PTEMPA1>5.14562526e+001</PTEMPA1>
#       <PTEMPA2>-2.57959185e-001</PTEMPA2>
#       <PTCA0>5.24081949e+005</PTCA0>
#       <PTCA1>-1.72385379e+001</PTCA1>
#       <PTCA2>1.16435406e-001</PTCA2>
#       <PTCB0>2.49128750e+001</PTCB0>
#       <PTCB1>-1.02500000e-003</PTCB1>
#       <PTCB2>0.00000000e+000</PTCB2>
#       <Offset>0.000000</Offset>
#     </PressureSensor>
#   </sensor>
#   <sensor Channel="4" >
#     <!-- A/D voltage 0, Oxygen, SBE 43 -->
#     <OxygenSensor SensorID="38" >
#       <SerialNumber>2361</SerialNumber>
#       <CalibrationDate>20-Jan-17</CalibrationDate>
#       <Use2007Equation>1</Use2007Equation>
#       <CalibrationCoefficients equation="0" >
#         <!-- Coefficients for Owens-Millard equation. -->
#         <Boc>0.0000</Boc>
#         <Soc>0.0000e+000</Soc>
#         <offset>0.0000</offset>
#         <Pcor>0.00e+000</Pcor>
#         <Tcor>0.0000</Tcor>
#         <Tau>0.0</Tau>
#       </CalibrationCoefficients>
#       <CalibrationCoefficients equation="1" >
#         <!-- Coefficients for Sea-Bird equation - SBE calibration in 2007 and later. -->
#         <Soc>3.9698e-001</Soc>
#         <offset>-0.4986</offset>
#         <A>-3.9823e-003</A>
#         <B> 2.4447e-004</B>
#         <C>-3.3613e-006</C>
#         <D0> 2.5826e+000</D0>
#         <D1> 1.92634e-004</D1>
#         <D2>-4.64803e-002</D2>
#         <E> 3.6000e-002</E>
#         <Tau20> 1.0800</Tau20>
#         <H1>-3.3000e-002</H1>
#         <H2> 5.0000e+003</H2>
#         <H3> 1.4500e+003</H3>
#       </CalibrationCoefficients>
#     </OxygenSensor>
#   </sensor>
#   <sensor Channel="5" >
#     <!-- A/D voltage 1, Free -->
#   </sensor>
#   <sensor Channel="6" >
#     <!-- A/D voltage 2, PAR/Irradiance, Biospherical/Licor -->
#     <PAR_BiosphericalLicorChelseaSensor SensorID="42" >
#       <SerialNumber>70234</SerialNumber>
#       <CalibrationDate>11/29/16</CalibrationDate>
#       <M>1.00000000</M>
#       <B>0.00000000</B>
#       <CalibrationConstant>10917030568.00000000</CalibrationConstant>
#       <Multiplier>1.00000000</Multiplier>
#       <Offset>-0.09353959</Offset>
#     </PAR_BiosphericalLicorChelseaSensor>
#   </sensor>
#   <sensor Channel="7" >
#     <!-- A/D voltage 3, Transmissometer, WET Labs C-Star -->
#     <WET_LabsCStar SensorID="71" >
#       <SerialNumber>CST-484PR</SerialNumber>
#       <CalibrationDate>12/23/16</CalibrationDate>
#       <M>21.5610</M>
#       <B>-1.2721</B>
#       <PathLength>0.250</PathLength>
#     </WET_LabsCStar>
#   </sensor>
#   <sensor Channel="8" >
#     <!-- A/D voltage 4, Fluorometer, Turner Cyclops -->
#     <Fluorometer SensorID="68" >
#       <SerialNumber></SerialNumber>
#       <CalibrationDate></CalibrationDate>
#       <ScaleFactor>1.00000000e+000</ScaleFactor>
#       <Offset>0.00000000e+000</Offset>
#       <!-- 1 = C, Chlorophyll -->
#       <!-- 2 = R, Rhodamine -->
#       <!-- 3 = F, Fluorescein -->
#       <!-- 4 = P, Phycocyanin -->
#       <!-- 5 = E, Phycoerythrin -->
#       <!-- 6 = U, CDOM -->
#       <!-- 7 = O, CrudeOil -->
#       <!-- 8 = B, OpticalBrightness -->
#       <!-- 9 = T, Turbidity -->
#       <!-- 10 = G, Refined Fuels -->
#       <MeasuredParameter>4</MeasuredParameter>
#     </Fluorometer>
#   </sensor>
#   <sensor Channel="9" >
#     <!-- A/D voltage 5, Fluorometer, Turner Cyclops, 2 -->
#     <Fluorometer SensorID="68" >
#       <SerialNumber></SerialNumber>
#       <CalibrationDate></CalibrationDate>
#       <ScaleFactor>1.00000000e+000</ScaleFactor>
#       <Offset>0.00000000e+000</Offset>
#       <!-- 1 = C, Chlorophyll -->
#       <!-- 2 = R, Rhodamine -->
#       <!-- 3 = F, Fluorescein -->
#       <!-- 4 = P, Phycocyanin -->
#       <!-- 5 = E, Phycoerythrin -->
#       <!-- 6 = U, CDOM -->
#       <!-- 7 = O, CrudeOil -->
#       <!-- 8 = B, OpticalBrightness -->
#       <!-- 9 = T, Turbidity -->
#       <!-- 10 = G, Refined Fuels -->
#       <MeasuredParameter>1</MeasuredParameter>
#     </Fluorometer>
#   </sensor>
# </Sensors>
# datcnv_date = May 26 2017 13:03:35, 7.21d [datcnv_vars = 11]
# datcnv_in = C:\Users\Steve Constant\Desktop\CHRP2017\CTD\raw\CHRP1.hex C:\Users\Steve Constant\Desktop\CHRP2017\CTD\raw\SBE19plusV2_63372017.xmlcon
# datcnv_skipover = 0
# datcnv_ox_hysteresis_correction = yes
# datcnv_ox_tau_correction = yes
# file_type = ascii
*END*
     -0.206    24.4862   6.385081      6.451    8.21344   98.46477 5.6543e+03     0.2784    93.2759     2.2019     0.2764  0.000e+00
     -0.206    24.4748   6.355234      6.422    8.21406   98.45137 5.6266e+03     0.1697    95.8470     2.2313     0.2847  0.000e+00
     -0.207    24.4623   6.444777      6.514    8.21625   98.45486 5.6325e+03     0.2072    94.9521     2.2510     0.2902  0.000e+00
     -0.207    24.4467   6.414930      6.486    8.21433   98.40329 5.6494e+03     0.2782    93.2824     2.2645     0.2879  0.000e+00
     -0.207    24.4352   6.355234      6.427    8.22064   98.45787 5.6434e+03     0.2966    92.8531     2.2885     0.2759  0.000e+00
     -0.207    24.4295   6.385082      6.458    8.22276   98.47277 5.6246e+03     0.2729    93.4058     2.3018     0.2708  0.000e+00
     -0.206    24.4239   6.355235      6.429    8.22370   98.47383 5.5383e+03     0.2515    93.9059     2.3278     0.2784  0.000e+00
     -0.206    24.4155   6.355235      6.430    8.22459   98.46900 5.6187e+03     0.2523    93.8878     2.3492     0.2898  0.000e+00
     -0.206    24.3983   6.325388      6.402    8.22619   98.45682 5.6474e+03     0.2613    93.6772     2.3529     0.2960  0.000e+00
     -0.206    24.3702   6.295541      6.375    8.23005   98.45163 5.6276e+03     0.2664    93.5571     2.3455     0.3046  0.000e+00
     -0.207    24.3315   6.295541      6.380    8.23453   98.43426 5.6484e+03     0.2651    93.5868     2.3386     0.3008  0.000e+00
     -0.207    24.2885   6.325390      6.416    8.24243   98.44989 5.6405e+03     0.2612    93.6789     2.3304     0.2963  0.000e+00
     -0.206    24.2488   6.355238      6.451    8.24987   98.46597 5.6029e+03     0.2609    93.6855     2.3259     0.2812  0.000e+00
     -0.206    24.2130   6.325391      6.426    8.25944   98.51438 5.6088e+03     0.2616    93.6690     2.3168     0.2802  0.000e+00
     -0.206    24.1829   6.355240      6.460    8.26919   98.57541 5.2568e+03     0.2624    93.6509     2.3105     0.2837  0.000e+00
     -0.206    24.1559   6.355240      6.464    8.27752   98.62496 4.1658e+03     0.2627    93.6443     2.3191     0.2803  0.000e+00
     -0.206    24.1302   6.325393      6.437    8.28763   98.69817 4.1142e+03     0.2620    93.6591     2.3369     0.2770  0.000e+00
     -0.206    24.1135   6.355241      6.469    8.29506   98.75597 5.3452e+03     0.2618    93.6657     2.3596     0.2797  0.000e+00
     -0.206    24.1084   6.295546      6.409    8.29699   98.76952 5.1201e+03     0.2618    93.6641     2.3592     0.2731  0.000e+00
     -0.206    24.1106   6.325393      6.439    8.30355   98.85153 3.8323e+03     0.2621    93.6575     2.3652     0.2672  0.000e+00
     -0.206    24.1182   6.295546      6.408    8.30243   98.85239 5.5354e+03     0.2626    93.6460     2.3609     0.2754  0.000e+00
     -0.207    24.1132   6.325393      6.439    8.29975   98.81119 5.5882e+03     0.2619    93.6624     2.3400     0.2741  0.000e+00
     -0.206    24.0897   6.295546      6.412    8.30487   98.82869 5.5921e+03     0.2627    93.6443     2.3503     0.2755  0.000e+00
     -0.206    24.0659   6.265699      6.384    8.30546   98.79194 5.5520e+03     0.2626    93.6460     2.3593     0.2813  0.000e+00
     -0.206    24.0470   6.265700      6.387    8.30833   98.79114 5.5627e+03     0.2622    93.6558     2.3672     0.2854  0.000e+00
     -0.206    24.0363   6.265700      6.388    8.30699   98.75557 5.1219e+03     0.2618    93.6641     2.3610     0.3008  0.000e+00
     -0.205    24.0279   6.265700      6.389    8.30979   98.77326 4.4425e+03     0.2618    93.6641     2.3529     0.3082  0.000e+00
     -0.206    24.0122   6.265700      6.391    8.31119   98.76080 3.9450e+03     0.2620    93.6608     2.3378     0.3019  0.000e+00
     -0.206    23.9903   6.295548      6.425    8.31286   98.74022 3.7248e+03     0.2623    93.6526     2.3371     0.2895  0.000e+00
     -0.205    23.9793   6.265701      6.396    8.31674   98.76613 3.7975e+03     0.2620    93.6608     2.3437     0.2828  0.000e+00
     -0.206    23.9792   6.295549      6.426    8.31440   98.73819 3.8607e+03     0.2620    93.6608     2.3504     0.2905  0.000e+00
     -0.205    23.9881   6.295548      6.425    8.31237   98.73041 4.3836e+03     0.2620    93.6591     2.3394     0.2983  0.000e+00
     -0.205    24.0024   6.325396      6.453    8.31384   98.77428 4.6583e+03     0.2621    93.6575     2.3426     0.2994  0.000e+00
     -0.205    24.0160   6.265700      6.391    8.31170   98.77391 4.8589e+03     0.2621    93.6575     2.3447     0.2934  0.000e+00
     -0.204    24.0269   6.265700      6.389    8.31083   98.78383 5.3368e+03     0.2620    93.6608     2.3504     0.2926  0.000e+00
     -0.204    24.0314   6.325395      6.450    8.31144   98.79937 5.4534e+03     0.2618    93.6657     2.3564     0.2893  0.000e+00
     -0.205    24.0279   6.265700      6.389    8.31165   98.79535 5.5179e+03     0.2618    93.6657     2.3512     0.2911  0.000e+00
     -0.204    24.0339   6.295547      6.419    8.31177   98.80787 5.5413e+03     0.2615    93.6707     2.3472     0.2958  0.000e+00
     -0.205    24.0454   6.265700      6.387    8.31012   98.80938 5.5735e+03     0.2615    93.6723     2.3652     0.2982  0.000e+00
     -0.204    24.0578   6.355242      6.477    8.30546   98.77692 5.5500e+03     0.2621    93.6575     2.3753     0.3010  0.000e+00
     -0.204    24.0693   6.325394      6.445    8.30805   98.82892 5.5364e+03     0.2622    93.6558     2.3743     0.3033  0.000e+00
     -0.205    24.0793   6.355242      6.474    8.30868   98.85479 5.5705e+03     0.2615    93.6707     2.3753     0.3071  0.000e+00
     -0.204    24.0883   6.414937      6.533    8.30583   98.83765 5.5005e+03     0.2613    93.6756     2.3725     0.3011  0.000e+00
     -0.204    24.0957   6.444785      6.563    8.30316   98.81964 4.8932e+03     0.2618    93.6641     2.3502     0.3022  0.000e+00
     -0.204    24.1008   6.414937      6.532    8.30286   98.82521 4.5077e+03     0.2616    93.6690     2.3519     0.2952  0.000e+00
     -0.205    24.1031   6.414937      6.531    8.30280   98.82882 3.8242e+03     0.2621    93.6575     2.3658     0.2966  0.000e+00
     -0.205    24.1046   6.474632      6.592    8.30030   98.80180 3.7570e+03     0.2622    93.6558     2.3670     0.2976  0.000e+00
     -0.204    24.1032   6.414937      6.531    8.30212   98.82092 3.7629e+03     0.2621    93.6575     2.3806     0.2975  0.000e+00
     -0.204    24.0848   6.444785      6.564    8.30381   98.80711 4.0582e+03     0.2618    93.6657     2.3874     0.2972  0.000e+00
     -0.205    24.0704   6.414937      6.536    8.30600   98.80669 3.8777e+03     0.2662    93.5621     2.3848     0.2957  0.000e+00
     -0.204    24.0626   6.414938      6.537    8.30518   98.78243 3.7091e+03     0.2847    93.1294     2.3800     0.3003  0.000e+00
     -0.204    24.0476   6.474633      6.600    8.30904   98.80076 3.7702e+03     0.2902    93.0028     2.3655     0.3000  0.000e+00
     -0.204    24.0394   6.414938      6.540    8.30980   98.79453 3.8648e+03     0.2760    93.3334     2.3727     0.2945  0.000e+00
     -0.201    24.0443   6.414938      6.539    8.31070   98.81425 3.8343e+03     0.2650    93.5900     2.3851     0.0000  0.000e+00
     -0.203    24.0416   6.474634      6.600    8.30547   98.74721 3.6107e+03     0.2629    93.6394     2.3758     0.0000  0.000e+00
     -0.204    24.0306   6.414938      6.541    8.31165   98.80024 3.8048e+03     0.2629    93.6394     2.3847     0.0000  0.000e+00
     -0.205    24.0066   6.414939      6.544    8.31451   98.78996 4.6870e+03     0.2629    93.6378     2.3862     0.0000  0.000e+00
     -0.204    24.0008   6.444787      6.575    8.31595   98.79641 5.0406e+03     0.2627    93.6443     2.3813     0.0000  0.000e+00
     -0.204    24.0074   6.414939      6.544    8.31385   98.78363 5.4314e+03     0.2618    93.6657     2.3813     0.0000  0.000e+00
     -0.204    24.0167   6.474634      6.604    8.31245   98.78411 5.4247e+03     0.2656    93.5752     2.3819     0.0000  0.000e+00
     -0.204    24.0225   6.414938      6.542    8.31231   98.79328 5.1761e+03     0.2631    93.6345     2.3915     0.0000  0.000e+00
     -0.201    24.0238   6.295548      6.420    8.31445   98.82105 4.4841e+03     0.2624    93.6509     2.3911     0.1039  0.000e+00
     -0.182    24.0292  22.987204     23.440    8.31297   98.81690 3.7241e+03     0.2621    93.6575     2.3416     0.3684  0.000e+00
     -0.046    23.0394 209.911865    218.454    8.44675   98.60357 4.0511e+03     1.0634    76.6548     1.8157     0.4546  0.000e+00
      0.115    20.0951 223.514009    247.799    8.88865   98.01318 5.2255e+03     8.0129    13.4901     1.2947     0.3442  0.000e+00
      0.240    17.9102 227.859901    265.481    9.25552   97.65956 5.5413e+03    11.5764     5.5349     0.9377     0.2424  0.000e+00
      0.314    16.6303 227.860850    273.646    9.50509   97.66410 4.7802e+03    13.4398     3.4737     0.7156     0.1697  0.000e+00
      0.330    15.9903 227.861325    277.919    9.67200   98.04695 5.0247e+03     8.9501    10.6722     0.5734     0.1243  0.000e+00
      0.313    15.6835 227.288289    279.311    9.79604   98.65875 4.9589e+03     7.8602    14.0149     0.4826     0.0810  0.000e+00
      0.293    15.5222 227.559951    280.759    9.88814   99.24396 4.4699e+03     7.4479    15.5365     0.4253     0.0543  0.000e+00
      0.284    15.4371 228.072940    281.984    9.94157   99.59908 4.1454e+03     7.3695    15.8441     0.3848     0.0357  0.000e+00
      0.309    15.3965 228.103143    282.305    9.96678   99.76485 3.9188e+03     7.3282    16.0086     0.3540     0.0378  0.000e+00
