* Sea-Bird SBE19plus Data File:
* FileName = C:\Users\Steve Constant\Desktop\CHRP2017\CTD\raw\chp32017022.hex
* Software Version 1.59
* Temperature SN =  6337
* Conductivity SN =  6337
* System UpLoad Time = May 26 2017 12:35:08
* ds
* SBE 19plus V 2.5.2  SERIAL NO. 6337    26 May 2017 08:26:09
* vbatt = 12.1, vlith =  8.2, ioper =  61.3 ma, ipump =  48.3 ma,
* iext01 =   5.8 ma, iext2345 =  86.7 ma
* status = not logging
* number of scans to average = 1
* samples = 300534, free = 2560254, casts = 22
* mode = profile, minimum cond freq = 3154, pump delay = 40 sec
* autorun = no, ignore magnetic switch = no
* battery type = alkaline, battery cutoff =  7.5 volts
* pressure sensor = strain gauge, range = 160.0
* SBE 38 = no, WETLABS = no, OPTODE = no, SBE63 = no, Gas Tension Device = no
* Ext Volt 0 = yes, Ext Volt 1 = yes
* Ext Volt 2 = yes, Ext Volt 3 = yes
* Ext Volt 4 = yes, Ext Volt 5 = yes
* echo characters = yes
* output format = raw HEX

* S>
*
* SBE 19plus V 2.5.2  SERIAL NO. 6337    26 May 2017 08:26:47
* temperature:  13-Jan-17
*     TA0 = 1.295807e-03
*     TA1 = 2.588888e-04
*     TA2 = 9.706836e-08
*     TA3 = 1.382757e-07
*     TOFFSET = 0.000000e+00
* conductivity:  13-Jan-17
*     G = -1.015047e+00
*     H = 1.449340e-01
*     I = -4.359138e-04
*     J = 5.256769e-05
*     CPCOR = -9.570000e-08
*     CTCOR = 3.250000e-06
*     CSLOPE = 1.000000e+00
* pressure S/N = 2882551, range = 160 psia:  11-Jan-17
*     PA0 = -1.431544e-01
*     PA1 = 4.887645e-04
*     PA2 = -6.439018e-12
*     PTCA0 = 5.240819e+05
*     PTCA1 = -1.723854e+01
*     PTCA2 = 1.164354e-01
*     PTCB0 = 2.491288e+01
*     PTCB1 = -1.025000e-03
*     PTCB2 = 0.000000e+00
*     PTEMPA0 = -6.474687e+01
*     PTEMPA1 = 5.145625e+01
*     PTEMPA2 = -2.579592e-01
*     POFFSET = 0.000000e+00
* volt 0: offset = -4.766105e-02, slope = 1.249330e+00
* volt 1: offset = -4.904947e-02, slope = 1.248985e+00
* volt 2: offset = -4.772842e-02, slope = 1.248965e+00
* volt 3: offset = -4.803053e-02, slope = 1.249328e+00
* volt 4: offset = -4.743158e-02, slope = 1.248557e+00
* volt 5: offset = -4.724737e-02, slope = 1.251092e+00
*     EXTFREQSF = 9.999918e-01
* dh
* cast  22 24 May 2017 06:09:51 samples 299101 to 300534, avg = 1, stop = mag switch

* S>
# nquan = 12
# nvalues = 828                                   
# units = specified
# name 0 = depFM: Depth [fresh water, m]
# name 1 = tv290C: Temperature [ITS-90, deg C]
# name 2 = c0uS/cm: Conductivity [uS/cm]
# name 3 = specc: Specific Conductance [uS/cm]
# name 4 = sbeox0Mg/L: Oxygen, SBE 43 [mg/l]
# name 5 = sbeox0PS: Oxygen, SBE 43 [% saturation]
# name 6 = par: PAR/Irradiance, Biospherical/Licor
# name 7 = CStarAt0: Beam Attenuation, WET Labs C-Star [1/m]
# name 8 = CStarTr0: Beam Transmission, WET Labs C-Star [%]
# name 9 = chloroflTC0: Chlorophyll, Turner Cyclops [ug/l]
# name 10 = phycyflTC0: Phycocyanin, Turner Cyclops [RFU]
# name 11 = flag:  0.000e+00
# span 0 =     -0.334,     22.159                 
# span 1 =     9.6102,    12.7022                 
# span 2 =   8.653965, 206.302034                 
# span 3 =     11.499,    284.638                 
# span 4 =    7.88080,   10.56088                 
# span 5 =   71.10322,   96.33550                 
# span 6 = 2.7336e-01, 5.7648e+02                 
# span 7 =     0.1123,    19.5560                 
# span 8 =     0.7529,    97.2304                 
# span 9 =     0.0319,     0.7987                 
# span 10 =     0.0000,     0.9225                
# span 11 = 0.0000e+00, 0.0000e+00                
# interval = seconds: 0.25
# start_time = May 24 2017 06:09:51 [Instrument's time stamp, header]
# bad_flag = -9.990e-29
# <Sensors count="9" >
#   <sensor Channel="1" >
#     <!-- Count, Temperature -->
#     <TemperatureSensor SensorID="58" >
#       <SerialNumber>6337</SerialNumber>
#       <CalibrationDate>13-Jan-17</CalibrationDate>
#       <A0>1.29580686e-003</A0>
#       <A1>2.58888790e-004</A1>
#       <A2>9.70683569e-008</A2>
#       <A3>1.38275720e-007</A3>
#       <Slope>1.00000000</Slope>
#       <Offset>0.0000</Offset>
#     </TemperatureSensor>
#   </sensor>
#   <sensor Channel="2" >
#     <!-- Frequency 0, Conductivity -->
#     <ConductivitySensor SensorID="3" >
#       <SerialNumber>6337</SerialNumber>
#       <CalibrationDate>13-Jan-17</CalibrationDate>
#       <UseG_J>1</UseG_J>
#       <!-- Cell const and series R are applicable only for wide range sensors. -->
#       <SeriesR>0.0000</SeriesR>
#       <CellConst>2000.0000</CellConst>
#       <ConductivityType>0</ConductivityType>
#       <Coefficients equation="0" >
#         <A>0.00000000e+000</A>
#         <B>0.00000000e+000</B>
#         <C>0.00000000e+000</C>
#         <D>0.00000000e+000</D>
#         <M>0.0</M>
#         <CPcor>-9.57000000e-008</CPcor>
#       </Coefficients>
#       <Coefficients equation="1" >
#         <G>-1.01504657e+000</G>
#         <H>1.44933984e-001</H>
#         <I>-4.35913838e-004</I>
#         <J>5.25676850e-005</J>
#         <CPcor>-9.57000000e-008</CPcor>
#         <CTcor>3.2500e-006</CTcor>
#         <!-- WBOTC not applicable unless ConductivityType = 1. -->
#         <WBOTC>0.00000000e+000</WBOTC>
#       </Coefficients>
#       <Slope>1.00000000</Slope>
#       <Offset>0.00000</Offset>
#     </ConductivitySensor>
#   </sensor>
#   <sensor Channel="3" >
#     <!-- Count, Pressure, Strain Gauge -->
#     <PressureSensor SensorID="46" >
#       <SerialNumber>6337</SerialNumber>
#       <CalibrationDate>11-Jan-17</CalibrationDate>
#       <PA0>-1.43154376e-001</PA0>
#       <PA1>4.88764480e-004</PA1>
#       <PA2>-6.43901847e-012</PA2>
#       <PTEMPA0>-6.47468750e+001</PTEMPA0>
#       <PTEMPA1>5.14562526e+001</PTEMPA1>
#       <PTEMPA2>-2.57959185e-001</PTEMPA2>
#       <PTCA0>5.24081949e+005</PTCA0>
#       <PTCA1>-1.72385379e+001</PTCA1>
#       <PTCA2>1.16435406e-001</PTCA2>
#       <PTCB0>2.49128750e+001</PTCB0>
#       <PTCB1>-1.02500000e-003</PTCB1>
#       <PTCB2>0.00000000e+000</PTCB2>
#       <Offset>0.000000</Offset>
#     </PressureSensor>
#   </sensor>
#   <sensor Channel="4" >
#     <!-- A/D voltage 0, Oxygen, SBE 43 -->
#     <OxygenSensor SensorID="38" >
#       <SerialNumber>2361</SerialNumber>
#       <CalibrationDate>20-Jan-17</CalibrationDate>
#       <Use2007Equation>1</Use2007Equation>
#       <CalibrationCoefficients equation="0" >
#         <!-- Coefficients for Owens-Millard equation. -->
#         <Boc>0.0000</Boc>
#         <Soc>0.0000e+000</Soc>
#         <offset>0.0000</offset>
#         <Pcor>0.00e+000</Pcor>
#         <Tcor>0.0000</Tcor>
#         <Tau>0.0</Tau>
#       </CalibrationCoefficients>
#       <CalibrationCoefficients equation="1" >
#         <!-- Coefficients for Sea-Bird equation - SBE calibration in 2007 and later. -->
#         <Soc>3.9698e-001</Soc>
#         <offset>-0.4986</offset>
#         <A>-3.9823e-003</A>
#         <B> 2.4447e-004</B>
#         <C>-3.3613e-006</C>
#         <D0> 2.5826e+000</D0>
#         <D1> 1.92634e-004</D1>
#         <D2>-4.64803e-002</D2>
#         <E> 3.6000e-002</E>
#         <Tau20> 1.0800</Tau20>
#         <H1>-3.3000e-002</H1>
#         <H2> 5.0000e+003</H2>
#         <H3> 1.4500e+003</H3>
#       </CalibrationCoefficients>
#     </OxygenSensor>
#   </sensor>
#   <sensor Channel="5" >
#     <!-- A/D voltage 1, Free -->
#   </sensor>
#   <sensor Channel="6" >
#     <!-- A/D voltage 2, PAR/Irradiance, Biospherical/Licor -->
#     <PAR_BiosphericalLicorChelseaSensor SensorID="42" >
#       <SerialNumber>70234</SerialNumber>
#       <CalibrationDate>11/29/16</CalibrationDate>
#       <M>1.00000000</M>
#       <B>0.00000000</B>
#       <CalibrationConstant>10917030568.00000000</CalibrationConstant>
#       <Multiplier>1.00000000</Multiplier>
#       <Offset>-0.09353959</Offset>
#     </PAR_BiosphericalLicorChelseaSensor>
#   </sensor>
#   <sensor Channel="7" >
#     <!-- A/D voltage 3, Transmissometer, WET Labs C-Star -->
#     <WET_LabsCStar SensorID="71" >
#       <SerialNumber>CST-484PR</SerialNumber>
#       <CalibrationDate>12/23/16</CalibrationDate>
#       <M>21.5610</M>
#       <B>-1.2721</B>
#       <PathLength>0.250</PathLength>
#     </WET_LabsCStar>
#   </sensor>
#   <sensor Channel="8" >
#     <!-- A/D voltage 4, Fluorometer, Turner Cyclops -->
#     <Fluorometer SensorID="68" >
#       <SerialNumber></SerialNumber>
#       <CalibrationDate></CalibrationDate>
#       <ScaleFactor>1.00000000e+000</ScaleFactor>
#       <Offset>0.00000000e+000</Offset>
#       <!-- 1 = C, Chlorophyll -->
#       <!-- 2 = R, Rhodamine -->
#       <!-- 3 = F, Fluorescein -->
#       <!-- 4 = P, Phycocyanin -->
#       <!-- 5 = E, Phycoerythrin -->
#       <!-- 6 = U, CDOM -->
#       <!-- 7 = O, CrudeOil -->
#       <!-- 8 = B, OpticalBrightness -->
#       <!-- 9 = T, Turbidity -->
#       <!-- 10 = G, Refined Fuels -->
#       <MeasuredParameter>4</MeasuredParameter>
#     </Fluorometer>
#   </sensor>
#   <sensor Channel="9" >
#     <!-- A/D voltage 5, Fluorometer, Turner Cyclops, 2 -->
#     <Fluorometer SensorID="68" >
#       <SerialNumber></SerialNumber>
#       <CalibrationDate></CalibrationDate>
#       <ScaleFactor>1.00000000e+000</ScaleFactor>
#       <Offset>0.00000000e+000</Offset>
#       <!-- 1 = C, Chlorophyll -->
#       <!-- 2 = R, Rhodamine -->
#       <!-- 3 = F, Fluorescein -->
#       <!-- 4 = P, Phycocyanin -->
#       <!-- 5 = E, Phycoerythrin -->
#       <!-- 6 = U, CDOM -->
#       <!-- 7 = O, CrudeOil -->
#       <!-- 8 = B, OpticalBrightness -->
#       <!-- 9 = T, Turbidity -->
#       <!-- 10 = G, Refined Fuels -->
#       <MeasuredParameter>1</MeasuredParameter>
#     </Fluorometer>
#   </sensor>
# </Sensors>
# datcnv_date = May 26 2017 13:03:40, 7.21d [datcnv_vars = 11]
# datcnv_in = C:\Users\Steve Constant\Desktop\CHRP2017\CTD\raw\CHRP9.hex C:\Users\Steve Constant\Desktop\CHRP2017\CTD\raw\SBE19plusV2_63372017.xmlcon
# datcnv_skipover = 0
# datcnv_ox_hysteresis_correction = yes
# datcnv_ox_tau_correction = yes
# file_type = ascii
*END*
     -0.333    12.6327  12.326113     16.376   10.07554   94.84356 5.7648e+02     0.1990    95.1479     0.0404     0.0125  0.000e+00
     -0.332    12.6308  12.773981     16.971   10.07640   94.84763 5.7315e+02     0.1123    97.2304     0.0414     0.0144  0.000e+00
     -0.333    12.6291  13.639888     18.123   10.07817   94.86097 5.7084e+02     0.1904    95.3518     0.0413     0.0134  0.000e+00
     -0.333    12.6282  14.416249     19.155   10.08002   94.87678 5.6654e+02     0.2665    93.5539     0.0412     0.0156  0.000e+00
     -0.333    12.6269  14.177366     18.838   10.07773   94.85227 5.6267e+02     0.2614    93.6739     0.0380     0.0161  0.000e+00
     -0.333    12.6261  13.430873     17.846   10.07532   94.82771 5.5278e+02     0.2245    94.5425     0.0361     0.0168  0.000e+00
     -0.332    12.6261  12.863556     17.093   10.07802   94.85302 5.4353e+02     0.2101    94.8830     0.0378     0.0169  0.000e+00
     -0.332    12.6265  12.564975     16.696   10.07978   94.87036 5.3032e+02     0.2209    94.6280     0.0351     0.0166  0.000e+00
     -0.332    12.6267  12.146968     16.140   10.07878   94.86114 5.2045e+02     0.2324    94.3566     0.0332     0.0181  0.000e+00
     -0.334    12.6273  11.549831     15.346   10.08339   94.90564 5.1417e+02     0.2330    94.3418     0.0347     0.0167  0.000e+00
     -0.333    12.6282  11.251269     14.949   10.08059   94.88100 5.1309e+02     0.2270    94.4833     0.0345     0.0134  0.000e+00
     -0.333    12.6291  10.833290     14.394   10.08148   94.89122 5.1102e+02     0.2244    94.5441     0.0352     0.0173  0.000e+00
     -0.333    12.6300  10.475028     13.917   10.07940   94.87342 5.0691e+02     0.2260    94.5063     0.0360     0.0163  0.000e+00
     -0.334    12.6299  10.176482     13.521   10.08198   94.89751 4.9843e+02     0.2281    94.4570     0.0356     0.0141  0.000e+00
     -0.333    12.6285   9.907794     13.164   10.07940   94.87016 4.9234e+02     0.2281    94.4570     0.0359     0.0145  0.000e+00
     -0.333    12.6269   9.848087     13.085   10.07591   94.83386 4.8283e+02     0.2266    94.4915     0.0348     0.0169  0.000e+00
     -0.333    12.6257   9.639110     12.808   10.07794   94.85044 4.7751e+02     0.2268    94.4882     0.0361     0.0179  0.000e+00
     -0.333    12.6255   9.519696     12.650   10.07698   94.84082 4.7110e+02     0.2264    94.4981     0.0378     0.0153  0.000e+00
     -0.333    12.6260   9.430136     12.530   10.08189   94.88812 4.6289e+02     0.2268    94.4866     0.0388     0.0124  0.000e+00
     -0.333    12.6270   9.221164     12.252   10.08262   94.89692 4.5949e+02     0.2273    94.4751     0.0397     0.0123  0.000e+00
     -0.333    12.6274   9.101752     12.094   10.08578   94.92750 4.4746e+02     0.2266    94.4915     0.0421     0.0129  0.000e+00
     -0.334    12.6270   8.922636     11.856   10.08225   94.89347 4.1504e+02     0.2268    94.4866     0.0421     0.0131  0.000e+00
     -0.333    12.6266   8.653965     11.499   10.08485   94.91707 4.3528e+02     0.2266    94.4915     0.0414     0.0136  0.000e+00
     -0.334    12.6263   9.101752     12.094   10.08374   94.90601 4.3200e+02     0.2264    94.4981     0.0416     0.0118  0.000e+00
     -0.333    12.6253  10.654158     14.157   10.08506   94.91687 4.4793e+02     0.2265    94.4948     0.0410     0.0124  0.000e+00
     -0.333    12.6244  11.967825     15.903   10.08398   94.90514 4.5331e+02     0.2267    94.4899     0.0417     0.0143  0.000e+00
     -0.333    12.6237  11.758827     15.626   10.08082   94.87395 4.5587e+02     0.2266    94.4915     0.0408     0.0160  0.000e+00
     -0.333    12.6225  11.669257     15.507   10.08194   94.88189 4.8249e+02     0.2264    94.4981     0.0393     0.0186  0.000e+00
     -0.333    12.6218  11.669257     15.507   10.08068   94.86840 4.9537e+02     0.2262    94.5014     0.0356     0.0301  0.000e+00
     -0.333    12.6219  11.818541     15.706   10.08108   94.87233 5.0513e+02     0.2265    94.4948     0.0337     0.0311  0.000e+00
     -0.334    12.6219  12.027540     15.983   10.08384   94.89853 5.0807e+02     0.2265    94.4948     0.0319     0.0289  0.000e+00
     -0.334    12.6217  12.027540     15.984   10.08333   94.89321 5.1030e+02     0.2266    94.4915     0.0340     0.0221  0.000e+00
     -0.333    12.6192  11.699114     15.548   10.08732   94.92532 5.1390e+02     0.2265    94.4948     0.0356     0.0172  0.000e+00
     -0.333    12.6144  11.728971     15.590   10.08673   94.90967 5.1013e+02     0.2265    94.4948     0.0365     0.0160  0.000e+00
     -0.333    12.6082  12.057397     16.029   10.08796   94.90786 5.0611e+02     0.2266    94.4932     0.0363     0.0171  0.000e+00
     -0.334    12.6027  12.296256     16.349   10.08584   94.87643 4.9773e+02     0.2265    94.4948     0.0343     0.0193  0.000e+00
     -0.333    12.5999  12.176827     16.191   10.08869   94.89709 4.8923e+02     0.2267    94.4899     0.0343     0.0197  0.000e+00
     -0.333    12.6000  12.176827     16.191   10.08675   94.87911 4.8470e+02     0.2268    94.4882     0.0362     0.0241  0.000e+00
     -0.334    12.6013  12.236541     16.270   10.08272   94.84413 4.8232e+02     0.2269    94.4849     0.0359     0.0204  0.000e+00
     -0.333    12.6030  11.848398     15.753   10.08192   94.84001 4.8393e+02     0.2271    94.4816     0.0363     0.0163  0.000e+00
     -0.333    12.6045  11.758828     15.634   10.08635   94.88484 4.8368e+02     0.2262    94.5014     0.0388     0.0243  0.000e+00
     -0.333    12.6057  12.296256     16.348   10.08551   94.87974 4.8173e+02     0.2264    94.4981     0.0388     0.0236  0.000e+00
     -0.333    12.6069  12.475402     16.585   10.08668   94.89330 4.8368e+02     0.2267    94.4899     0.0365     0.0273  0.000e+00
     -0.333    12.6079  12.773982     16.982   10.08889   94.91642 4.8122e+02     0.2269    94.4849     0.0366     0.0008  0.000e+00
     -0.333    12.6090  13.102425     17.418   10.08163   94.85049 4.7785e+02     0.5098    88.0332     0.0365     0.0000  0.000e+00
     -0.333    12.6101  13.281578     17.656   10.08607   94.89469 4.7325e+02     0.7476    82.9535     0.0364     0.0000  0.000e+00
     -0.333    12.6112  13.102425     17.417   10.08896   94.92406 4.7167e+02     0.8076    81.7181     0.0364     0.0000  0.000e+00
     -0.332    12.6122  12.773982     16.980   10.08608   94.89904 4.6354e+02     0.8139    81.5898     0.0360     0.0000  0.000e+00
     -0.332    12.6130  12.684407     16.860   10.08577   94.89778 4.4706e+02     0.8180    81.5059     0.0348     0.0081  0.000e+00
     -0.333    12.6139  12.594833     16.741   10.08729   94.91404 4.4393e+02     0.8198    81.4697     0.0359     0.0185  0.000e+00
     -0.333    12.6145  12.176826     16.185   10.08285   94.87347 4.4082e+02     0.8246    81.3710     0.0366     0.1946  0.000e+00
     -0.333    12.6154  12.326113     16.383   10.08728   94.91705 4.2890e+02     0.8255    81.3529     0.0383     0.1554  0.000e+00
     -0.332    12.6160  12.594833     16.740   10.08663   94.91245 4.1613e+02     0.8350    81.1604     0.0408     0.0000  0.000e+00
     -0.333    12.6167  12.117111     16.105   10.08655   94.91290 4.0716e+02     1.0311    77.2766     0.0404     0.0000  0.000e+00
     -0.332    12.6174  11.967826     15.906   10.08652   94.91416 3.9811e+02     1.4301    69.9399     0.0335     0.0000  0.000e+00
     -0.332    12.6183  11.848398     15.747   10.08369   94.88921 3.9581e+02     1.9500    61.4155     0.0324     0.0000  0.000e+00
     -0.332    12.6187  11.340838     15.072   10.08277   94.88139 3.8960e+02     1.9124    61.9962     0.0336     0.0000  0.000e+00
     -0.332    12.6192  11.281125     14.993   10.08666   94.91900 3.8673e+02     1.8030    63.7152     0.0359     0.0000  0.000e+00
     -0.323    12.6189  11.161702     14.834   10.08414   94.89469 3.9069e+02     1.6070    66.9147     0.0519     0.0000  0.000e+00
     -0.311    12.6500  11.101989     14.742   10.08020   94.92391 3.8382e+02     1.4879    68.9365     0.0813     0.6748  0.000e+00
     -0.301    12.7022  11.669254     15.474   10.06807   94.92115 3.8221e+02     1.4267    70.0008     0.1125     0.9225  0.000e+00
     -0.254    12.6868  69.254369     91.874   10.06899   94.91664 3.8033e+02     1.3971    70.5206     0.1226     0.6888  0.000e+00
     -0.159    12.5220 199.701942    266.092   10.09684   94.87485 3.7946e+02     1.9673    61.1507     0.1320     0.4550  0.000e+00
     -0.058    12.1617 206.302034    277.552   10.17863   94.87088 3.7966e+02     8.1609    12.9999     0.1466     0.2899  0.000e+00
      0.006    11.7565 203.680191    277.046   10.27385   94.87919 3.8093e+02    13.2783     3.6168     0.1495     0.1852  0.000e+00
      0.033    11.3902 202.746196    278.552   10.35979   94.87362 3.8221e+02    15.8096     1.9208     0.1469     0.1231  0.000e+00
      0.031    11.1491 202.595675    280.202   10.42094   94.90538 3.8107e+02    15.5929     2.0278     0.1413     0.0856  0.000e+00
      0.007    11.0095 202.294410    280.870   10.47076   95.05204 3.7292e+02    13.1494     3.7353     0.1376     0.0613  0.000e+00
     -0.003    10.9290 202.023246    281.122   10.50637   95.19785 3.6901e+02    15.4621     2.0952     0.1395     0.0441  0.000e+00
      0.014    10.8990 202.806791    282.448   10.52878   95.33501 3.7083e+02    12.1097     4.8440     0.1357     0.0340  0.000e+00
      0.059    10.9029 202.445159    281.914   10.53697   95.41747 3.7463e+02     9.9683     8.2738     0.1331     0.0310  0.000e+00
      0.113    10.9128 203.982128    283.976   10.52785   95.35747 3.7621e+02     1.8605    62.8055     0.1278     0.0269  0.000e+00
