* Sea-Bird SBE19plus Data File:
* FileName = C:\Users\Steve Constant\Desktop\CHRP2017\CTD\raw\chp32017019.hex
* Software Version 1.59
* Temperature SN =  6337
* Conductivity SN =  6337
* System UpLoad Time = May 26 2017 12:30:00
* ds
* SBE 19plus V 2.5.2  SERIAL NO. 6337    26 May 2017 08:26:09
* vbatt = 12.1, vlith =  8.2, ioper =  61.3 ma, ipump =  48.3 ma,
* iext01 =   5.8 ma, iext2345 =  86.7 ma
* status = not logging
* number of scans to average = 1
* samples = 300534, free = 2560254, casts = 22
* mode = profile, minimum cond freq = 3154, pump delay = 40 sec
* autorun = no, ignore magnetic switch = no
* battery type = alkaline, battery cutoff =  7.5 volts
* pressure sensor = strain gauge, range = 160.0
* SBE 38 = no, WETLABS = no, OPTODE = no, SBE63 = no, Gas Tension Device = no
* Ext Volt 0 = yes, Ext Volt 1 = yes
* Ext Volt 2 = yes, Ext Volt 3 = yes
* Ext Volt 4 = yes, Ext Volt 5 = yes
* echo characters = yes
* output format = raw HEX

* S>
*
* SBE 19plus V 2.5.2  SERIAL NO. 6337    26 May 2017 08:26:47
* temperature:  13-Jan-17
*     TA0 = 1.295807e-03
*     TA1 = 2.588888e-04
*     TA2 = 9.706836e-08
*     TA3 = 1.382757e-07
*     TOFFSET = 0.000000e+00
* conductivity:  13-Jan-17
*     G = -1.015047e+00
*     H = 1.449340e-01
*     I = -4.359138e-04
*     J = 5.256769e-05
*     CPCOR = -9.570000e-08
*     CTCOR = 3.250000e-06
*     CSLOPE = 1.000000e+00
* pressure S/N = 2882551, range = 160 psia:  11-Jan-17
*     PA0 = -1.431544e-01
*     PA1 = 4.887645e-04
*     PA2 = -6.439018e-12
*     PTCA0 = 5.240819e+05
*     PTCA1 = -1.723854e+01
*     PTCA2 = 1.164354e-01
*     PTCB0 = 2.491288e+01
*     PTCB1 = -1.025000e-03
*     PTCB2 = 0.000000e+00
*     PTEMPA0 = -6.474687e+01
*     PTEMPA1 = 5.145625e+01
*     PTEMPA2 = -2.579592e-01
*     POFFSET = 0.000000e+00
* volt 0: offset = -4.766105e-02, slope = 1.249330e+00
* volt 1: offset = -4.904947e-02, slope = 1.248985e+00
* volt 2: offset = -4.772842e-02, slope = 1.248965e+00
* volt 3: offset = -4.803053e-02, slope = 1.249328e+00
* volt 4: offset = -4.743158e-02, slope = 1.248557e+00
* volt 5: offset = -4.724737e-02, slope = 1.251092e+00
*     EXTFREQSF = 9.999918e-01
* dh
* cast  19 23 May 2017 11:51:45 samples 294535 to 296411, avg = 1, stop = mag switch

* S>
# nquan = 12
# nvalues = 976                                   
# units = specified
# name 0 = depFM: Depth [fresh water, m]
# name 1 = tv290C: Temperature [ITS-90, deg C]
# name 2 = c0uS/cm: Conductivity [uS/cm]
# name 3 = specc: Specific Conductance [uS/cm]
# name 4 = sbeox0Mg/L: Oxygen, SBE 43 [mg/l]
# name 5 = sbeox0PS: Oxygen, SBE 43 [% saturation]
# name 6 = par: PAR/Irradiance, Biospherical/Licor
# name 7 = CStarAt0: Beam Attenuation, WET Labs C-Star [1/m]
# name 8 = CStarTr0: Beam Transmission, WET Labs C-Star [%]
# name 9 = chloroflTC0: Chlorophyll, Turner Cyclops [ug/l]
# name 10 = phycyflTC0: Phycocyanin, Turner Cyclops [RFU]
# name 11 = flag:  0.000e+00
# span 0 =     -0.290,     24.942                 
# span 1 =     8.8080,    17.7261                 
# span 2 =  10.534572, 228.526844                 
# span 3 =     12.399,    295.551                 
# span 4 =    6.99702,   10.78128                 
# span 5 =   60.68455,  103.11015                 
# span 6 = 1.8841e+00, 4.4448e+03                 
# span 7 =     0.2273,    55.2620                 
# span 8 =    -0.0087,    94.4767                 
# span 9 =     0.0000,     4.9157                 
# span 10 =     0.0000,     1.6281                
# span 11 = 0.0000e+00, 0.0000e+00                
# interval = seconds: 0.25
# start_time = May 23 2017 11:51:45 [Instrument's time stamp, header]
# bad_flag = -9.990e-29
# <Sensors count="9" >
#   <sensor Channel="1" >
#     <!-- Count, Temperature -->
#     <TemperatureSensor SensorID="58" >
#       <SerialNumber>6337</SerialNumber>
#       <CalibrationDate>13-Jan-17</CalibrationDate>
#       <A0>1.29580686e-003</A0>
#       <A1>2.58888790e-004</A1>
#       <A2>9.70683569e-008</A2>
#       <A3>1.38275720e-007</A3>
#       <Slope>1.00000000</Slope>
#       <Offset>0.0000</Offset>
#     </TemperatureSensor>
#   </sensor>
#   <sensor Channel="2" >
#     <!-- Frequency 0, Conductivity -->
#     <ConductivitySensor SensorID="3" >
#       <SerialNumber>6337</SerialNumber>
#       <CalibrationDate>13-Jan-17</CalibrationDate>
#       <UseG_J>1</UseG_J>
#       <!-- Cell const and series R are applicable only for wide range sensors. -->
#       <SeriesR>0.0000</SeriesR>
#       <CellConst>2000.0000</CellConst>
#       <ConductivityType>0</ConductivityType>
#       <Coefficients equation="0" >
#         <A>0.00000000e+000</A>
#         <B>0.00000000e+000</B>
#         <C>0.00000000e+000</C>
#         <D>0.00000000e+000</D>
#         <M>0.0</M>
#         <CPcor>-9.57000000e-008</CPcor>
#       </Coefficients>
#       <Coefficients equation="1" >
#         <G>-1.01504657e+000</G>
#         <H>1.44933984e-001</H>
#         <I>-4.35913838e-004</I>
#         <J>5.25676850e-005</J>
#         <CPcor>-9.57000000e-008</CPcor>
#         <CTcor>3.2500e-006</CTcor>
#         <!-- WBOTC not applicable unless ConductivityType = 1. -->
#         <WBOTC>0.00000000e+000</WBOTC>
#       </Coefficients>
#       <Slope>1.00000000</Slope>
#       <Offset>0.00000</Offset>
#     </ConductivitySensor>
#   </sensor>
#   <sensor Channel="3" >
#     <!-- Count, Pressure, Strain Gauge -->
#     <PressureSensor SensorID="46" >
#       <SerialNumber>6337</SerialNumber>
#       <CalibrationDate>11-Jan-17</CalibrationDate>
#       <PA0>-1.43154376e-001</PA0>
#       <PA1>4.88764480e-004</PA1>
#       <PA2>-6.43901847e-012</PA2>
#       <PTEMPA0>-6.47468750e+001</PTEMPA0>
#       <PTEMPA1>5.14562526e+001</PTEMPA1>
#       <PTEMPA2>-2.57959185e-001</PTEMPA2>
#       <PTCA0>5.24081949e+005</PTCA0>
#       <PTCA1>-1.72385379e+001</PTCA1>
#       <PTCA2>1.16435406e-001</PTCA2>
#       <PTCB0>2.49128750e+001</PTCB0>
#       <PTCB1>-1.02500000e-003</PTCB1>
#       <PTCB2>0.00000000e+000</PTCB2>
#       <Offset>0.000000</Offset>
#     </PressureSensor>
#   </sensor>
#   <sensor Channel="4" >
#     <!-- A/D voltage 0, Oxygen, SBE 43 -->
#     <OxygenSensor SensorID="38" >
#       <SerialNumber>2361</SerialNumber>
#       <CalibrationDate>20-Jan-17</CalibrationDate>
#       <Use2007Equation>1</Use2007Equation>
#       <CalibrationCoefficients equation="0" >
#         <!-- Coefficients for Owens-Millard equation. -->
#         <Boc>0.0000</Boc>
#         <Soc>0.0000e+000</Soc>
#         <offset>0.0000</offset>
#         <Pcor>0.00e+000</Pcor>
#         <Tcor>0.0000</Tcor>
#         <Tau>0.0</Tau>
#       </CalibrationCoefficients>
#       <CalibrationCoefficients equation="1" >
#         <!-- Coefficients for Sea-Bird equation - SBE calibration in 2007 and later. -->
#         <Soc>3.9698e-001</Soc>
#         <offset>-0.4986</offset>
#         <A>-3.9823e-003</A>
#         <B> 2.4447e-004</B>
#         <C>-3.3613e-006</C>
#         <D0> 2.5826e+000</D0>
#         <D1> 1.92634e-004</D1>
#         <D2>-4.64803e-002</D2>
#         <E> 3.6000e-002</E>
#         <Tau20> 1.0800</Tau20>
#         <H1>-3.3000e-002</H1>
#         <H2> 5.0000e+003</H2>
#         <H3> 1.4500e+003</H3>
#       </CalibrationCoefficients>
#     </OxygenSensor>
#   </sensor>
#   <sensor Channel="5" >
#     <!-- A/D voltage 1, Free -->
#   </sensor>
#   <sensor Channel="6" >
#     <!-- A/D voltage 2, PAR/Irradiance, Biospherical/Licor -->
#     <PAR_BiosphericalLicorChelseaSensor SensorID="42" >
#       <SerialNumber>70234</SerialNumber>
#       <CalibrationDate>11/29/16</CalibrationDate>
#       <M>1.00000000</M>
#       <B>0.00000000</B>
#       <CalibrationConstant>10917030568.00000000</CalibrationConstant>
#       <Multiplier>1.00000000</Multiplier>
#       <Offset>-0.09353959</Offset>
#     </PAR_BiosphericalLicorChelseaSensor>
#   </sensor>
#   <sensor Channel="7" >
#     <!-- A/D voltage 3, Transmissometer, WET Labs C-Star -->
#     <WET_LabsCStar SensorID="71" >
#       <SerialNumber>CST-484PR</SerialNumber>
#       <CalibrationDate>12/23/16</CalibrationDate>
#       <M>21.5610</M>
#       <B>-1.2721</B>
#       <PathLength>0.250</PathLength>
#     </WET_LabsCStar>
#   </sensor>
#   <sensor Channel="8" >
#     <!-- A/D voltage 4, Fluorometer, Turner Cyclops -->
#     <Fluorometer SensorID="68" >
#       <SerialNumber></SerialNumber>
#       <CalibrationDate></CalibrationDate>
#       <ScaleFactor>1.00000000e+000</ScaleFactor>
#       <Offset>0.00000000e+000</Offset>
#       <!-- 1 = C, Chlorophyll -->
#       <!-- 2 = R, Rhodamine -->
#       <!-- 3 = F, Fluorescein -->
#       <!-- 4 = P, Phycocyanin -->
#       <!-- 5 = E, Phycoerythrin -->
#       <!-- 6 = U, CDOM -->
#       <!-- 7 = O, CrudeOil -->
#       <!-- 8 = B, OpticalBrightness -->
#       <!-- 9 = T, Turbidity -->
#       <!-- 10 = G, Refined Fuels -->
#       <MeasuredParameter>4</MeasuredParameter>
#     </Fluorometer>
#   </sensor>
#   <sensor Channel="9" >
#     <!-- A/D voltage 5, Fluorometer, Turner Cyclops, 2 -->
#     <Fluorometer SensorID="68" >
#       <SerialNumber></SerialNumber>
#       <CalibrationDate></CalibrationDate>
#       <ScaleFactor>1.00000000e+000</ScaleFactor>
#       <Offset>0.00000000e+000</Offset>
#       <!-- 1 = C, Chlorophyll -->
#       <!-- 2 = R, Rhodamine -->
#       <!-- 3 = F, Fluorescein -->
#       <!-- 4 = P, Phycocyanin -->
#       <!-- 5 = E, Phycoerythrin -->
#       <!-- 6 = U, CDOM -->
#       <!-- 7 = O, CrudeOil -->
#       <!-- 8 = B, OpticalBrightness -->
#       <!-- 9 = T, Turbidity -->
#       <!-- 10 = G, Refined Fuels -->
#       <MeasuredParameter>1</MeasuredParameter>
#     </Fluorometer>
#   </sensor>
# </Sensors>
# datcnv_date = May 26 2017 13:03:37, 7.21d [datcnv_vars = 11]
# datcnv_in = C:\Users\Steve Constant\Desktop\CHRP2017\CTD\raw\CHRP4.hex C:\Users\Steve Constant\Desktop\CHRP2017\CTD\raw\SBE19plusV2_63372017.xmlcon
# datcnv_skipover = 0
# datcnv_ox_hysteresis_correction = yes
# datcnv_ox_tau_correction = yes
# file_type = ascii
*END*
     -0.288    17.7261  22.151256     25.920    9.00540   94.59888 4.2523e+03     0.3063    92.6277     0.0475     0.0000  0.000e+00
     -0.289    17.7232  21.105780     24.698    9.01757   94.72085 4.2561e+03     0.2273    94.4767     0.0402     0.0000  0.000e+00
     -0.288    17.7186  20.478521     23.967    9.02952   94.83722 4.2576e+03     0.2822    93.1870     0.0374     0.0000  0.000e+00
     -0.289    17.7101  20.030491     23.447    9.03969   94.92733 4.2628e+03     0.3465    91.7032     0.0349     0.0000  0.000e+00
     -0.288    17.6990  19.612339     22.964    9.05199   95.03447 4.2591e+03     0.3516    91.5848     0.0349     0.0000  0.000e+00
     -0.288    17.6902  19.313664     22.618    9.05989   95.10008 4.2591e+03     0.3240    92.2198     0.0309     0.0000  0.000e+00
     -0.288    17.6822  19.224063     22.518    9.07042   95.19489 4.2613e+03     0.3077    92.5948     0.0343     0.0047  0.000e+00
     -0.288    17.6753  19.164329     22.451    9.07691   95.24939 4.2621e+03     0.3125    92.4846     0.0376     0.0034  0.000e+00
     -0.289    17.6695  19.224064     22.524    9.08132   95.28437 4.2576e+03     0.3226    92.2510     0.0402     0.0048  0.000e+00
     -0.290    17.6627  19.224064     22.528    9.08186   95.27666 4.2576e+03     0.3246    92.2066     0.0403     0.0082  0.000e+00
     -0.288    17.6547  18.955262     22.217    9.08448   95.28831 4.2621e+03     0.3208    92.2938     0.0366     0.0112  0.000e+00
     -0.289    17.6466  18.596864     21.801    9.08590   95.28713 4.2636e+03     0.3179    92.3612     0.0311     0.0151  0.000e+00
     -0.289    17.6383  18.417667     21.595    9.08693   95.28160 4.2613e+03     0.3180    92.3579     0.0301     0.0156  0.000e+00
     -0.289    17.6322  18.417668     21.599    9.08531   95.25253 4.2583e+03     0.3186    92.3431     0.0307     0.0056  0.000e+00
     -0.289    17.6271  18.537132     21.741    9.08822   95.27301 4.2509e+03     0.3196    92.3218     0.0285     0.0066  0.000e+00
     -0.289    17.6217  18.507266     21.709    9.08561   95.23518 4.2523e+03     0.3188    92.3398     0.0262     0.0040  0.000e+00
     -0.289    17.6133  18.298205     21.468    9.08724   95.23559 4.2553e+03     0.3185    92.3464     0.0283     0.0024  0.000e+00
     -0.290    17.6044  18.059280     21.192    9.09343   95.28289 4.2628e+03     0.3183    92.3514     0.0327     0.0027  0.000e+00
     -0.290    17.5994  17.850223     20.949    9.09351   95.27391 4.2248e+03     0.3187    92.3415     0.0351     0.0053  0.000e+00
     -0.289    17.5967  17.671033     20.740    9.09506   95.28477 4.1622e+03     0.3184    92.3497     0.0349     0.0053  0.000e+00
     -0.289    17.5961  17.402250     20.425    9.08947   95.22501 1.9451e+03     0.3189    92.3366     0.0369     0.0038  0.000e+00
     -0.289    17.5954  17.133471     20.110    9.08803   95.20829 9.0011e+02     0.3179    92.3612     0.0356     0.0024  0.000e+00
     -0.290    17.5946  17.850223     20.952    9.09392   95.26881 9.0582e+02     0.3181    92.3547     0.0376     0.0000  0.000e+00
     -0.289    17.5946  19.881157     23.335    9.08603   95.18666 9.2952e+02     0.3174    92.3711     0.0376     0.0000  0.000e+00
     -0.289    17.5951  21.165529     24.843    9.08932   95.22243 9.2740e+02     0.3166    92.3908     0.0361     0.0000  0.000e+00
     -0.289    17.5968  21.105789     24.771    9.08752   95.20682 9.3280e+02     0.3169    92.3826     0.0360     0.0041  0.000e+00
     -0.289    17.5999  21.852552     25.646    9.08784   95.21652 9.0503e+02     0.3172    92.3760     0.0368     0.0034  0.000e+00
     -0.289    17.6034  22.360366     26.240    9.08312   95.17418 8.6143e+02     0.3175    92.3695     0.0357     0.0000  0.000e+00
     -0.289    17.6066  22.599342     26.518    9.08822   95.23392 8.4732e+02     0.3179    92.3612     0.0346     0.0000  0.000e+00
     -0.290    17.6082  22.778575     26.728    9.08652   95.21940 8.4732e+02     0.3176    92.3678     0.0369     0.0024  0.000e+00
     -0.289    17.6098  22.360365     26.236    9.08617   95.21865 8.4822e+02     0.3174    92.3711     0.0374     0.0011  0.000e+00
     -0.289    17.6127  20.657743     24.237    9.08561   95.21791 9.6990e+02     0.3172    92.3760     0.0359     0.0011  0.000e+00
     -0.289    17.6158  19.552609     22.938    9.08534   95.22095 1.0156e+03     0.3161    92.4024     0.0390     0.0095  0.000e+00
     -0.289    17.6180  26.751994     31.383    9.08636   95.23794 1.2491e+03     0.3149    92.4287     0.0393     0.0169  0.000e+00
     -0.290    17.6156  31.473306     36.923    9.09159   95.28933 1.1925e+03     0.3149    92.4287     0.0369     0.0134  0.000e+00
     -0.290    17.6134  36.046252     42.290    9.09004   95.27016 1.2013e+03     0.3154    92.4172     0.0333     0.0067  0.000e+00
     -0.289    17.6150  40.351138     47.339    9.08553   95.22722 1.2030e+03     0.3150    92.4270     0.0775     0.0077  0.000e+00
     -0.288    17.6140  34.731051     40.747    9.08545   95.22276 4.2278e+03     0.3149    92.4287     0.6143     0.0104  0.000e+00
     -0.288    17.5979  32.937734     38.657    9.08644   95.20113 4.2404e+03     0.3146    92.4353     1.1798     0.0556  0.000e+00
     -0.288    17.5765  36.614210     42.994    9.09427   95.24195 4.2063e+03     0.3147    92.4336     1.4144     0.1235  0.000e+00
     -0.289    17.5724  43.909341     51.565    9.09498   95.24338 4.1527e+03     0.3146    92.4353     1.0713     0.0906  0.000e+00
     -0.290    17.5756  36.225608     42.538    9.09543   95.25223 4.1280e+03     0.3146    92.4369     0.7141     0.0600  0.000e+00
     -0.289    17.5802  28.216085     33.130    9.09741   95.27974 4.1185e+03     0.3151    92.4254     0.4672     0.0441  0.000e+00
     -0.289    17.5849  24.541126     28.811    9.09631   95.27645 4.1048e+03     0.3144    92.4418     0.3031     0.0370  0.000e+00
     -0.289    17.5894  22.479855     26.389    9.09342   95.25448 4.2174e+03     0.3145    92.4385     0.2129     0.0362  0.000e+00
     -0.289    17.5938  21.494103     25.229    9.09769   95.30752 4.2278e+03     0.3144    92.4402     0.1389     0.1175  0.000e+00
     -0.289    17.5979  19.433140     22.808    9.09696   95.30739 4.2613e+03     0.3140    92.4501     0.1133     0.0000  0.000e+00
     -0.289    17.6017  18.776065     22.035    9.09652   95.31018 4.1636e+03     0.3145    92.4385     0.0878     0.0000  0.000e+00
     -0.289    17.6052  19.731817     23.154    9.09421   95.29307 2.9045e+03     0.3152    92.4221     0.0685     0.0000  0.000e+00
     -0.288    17.6084  20.179840     23.678    9.09402   95.29760 2.3710e+03     0.3149    92.4287     0.0902     0.0000  0.000e+00
     -0.289    17.6114  19.881156     23.326    9.09330   95.29586 3.1445e+03     0.3152    92.4221     0.4198     0.0000  0.000e+00
     -0.288    17.6140  19.044865     22.344    9.09051   95.27146 4.1113e+03     0.3156    92.4139     0.6119     0.0000  0.000e+00
     -0.288    17.6167  18.955264     22.237    9.08493   95.21827 4.1222e+03     0.3151    92.4254     0.5598     0.0000  0.000e+00
     -0.288    17.6193  18.865664     22.131    9.07700   95.14035 4.1287e+03     0.3160    92.4040     0.3926     0.0000  0.000e+00
     -0.289    17.6218  18.596865     21.814    9.07726   95.14782 4.1070e+03     0.3156    92.4139     0.2609     0.0082  0.000e+00
     -0.288    17.6244  18.656598     21.883    9.07145   95.09202 4.1113e+03     0.3159    92.4073     0.1817     0.0517  0.000e+00
     -0.288    17.6267  18.746197     21.987    9.06496   95.02851 4.1258e+03     0.3155    92.4155     0.3751     0.0000  0.000e+00
     -0.288    17.6288  18.865663     22.126    9.06462   95.02915 4.0919e+03     0.3149    92.4287     0.2916     0.0647  0.000e+00
     -0.288    17.6311  18.955263     22.230    9.05945   94.97946 4.1019e+03     0.3157    92.4106     0.2000     0.2983  0.000e+00
     -0.288    17.6332  19.433137     22.789    9.06089   94.99884 4.0962e+03     0.3156    92.4122     0.1265     0.3567  0.000e+00
     -0.288    17.6356  19.642211     23.033    9.05865   94.97996 4.0854e+03     0.3150    92.4270     0.0914     0.2966  0.000e+00
     -0.288    17.6378  19.970759     23.417    9.05201   94.91483 4.0653e+03     0.3156    92.4122     0.0737     0.0144  0.000e+00
     -0.288    17.6396  20.299313     23.801    9.05212   94.91976 4.0425e+03     0.3169    92.3826     0.0607     0.0000  0.000e+00
     -0.288    17.6417  20.149970     23.625    9.04841   94.88479 4.0241e+03     0.3174    92.3711     0.0512     0.0000  0.000e+00
     -0.288    17.6433  20.239575     23.729    9.04981   94.90265 4.0192e+03     0.3158    92.4089     0.0452     0.2156  0.000e+00
     -0.288    17.6448  20.926567     24.533    9.04732   94.87978 3.8485e+03     0.3139    92.4534     0.0419     0.3203  0.000e+00
     -0.288    17.6463  20.747349     24.323    9.04723   94.88159 3.9092e+03     0.3143    92.4435     0.0406     0.0000  0.000e+00
     -0.288    17.6480  21.613581     25.337    9.03969   94.80608 3.8316e+03     0.3147    92.4336     0.0401     0.0000  0.000e+00
     -0.288    17.6496  21.195396     24.846    9.04224   94.83579 3.8968e+03     0.3149    92.4287     0.0376     0.0000  0.000e+00
     -0.288    17.6507  20.359050     23.865    9.04540   94.87084 3.8961e+03     0.3133    92.4665     0.0364     0.0000  0.000e+00
     -0.288    17.6520  19.373401     22.709    9.03956   94.81204 3.9043e+03     0.3135    92.4616     0.0384     0.0188  0.000e+00
     -0.288    17.6532  19.313667     22.638    9.04182   94.83797 3.9749e+03     0.3127    92.4797     0.0397     1.1154  0.000e+00
