* Sea-Bird SBE19plus Data File:
* FileName = C:\Users\Steve Constant\Desktop\CHRP2017\CTD\raw\chp32017020.hex
* Software Version 1.59
* Temperature SN =  6337
* Conductivity SN =  6337
* System UpLoad Time = May 26 2017 12:32:16
* ds
* SBE 19plus V 2.5.2  SERIAL NO. 6337    26 May 2017 08:26:09
* vbatt = 12.1, vlith =  8.2, ioper =  61.3 ma, ipump =  48.3 ma,
* iext01 =   5.8 ma, iext2345 =  86.7 ma
* status = not logging
* number of scans to average = 1
* samples = 300534, free = 2560254, casts = 22
* mode = profile, minimum cond freq = 3154, pump delay = 40 sec
* autorun = no, ignore magnetic switch = no
* battery type = alkaline, battery cutoff =  7.5 volts
* pressure sensor = strain gauge, range = 160.0
* SBE 38 = no, WETLABS = no, OPTODE = no, SBE63 = no, Gas Tension Device = no
* Ext Volt 0 = yes, Ext Volt 1 = yes
* Ext Volt 2 = yes, Ext Volt 3 = yes
* Ext Volt 4 = yes, Ext Volt 5 = yes
* echo characters = yes
* output format = raw HEX

* S>
*
* SBE 19plus V 2.5.2  SERIAL NO. 6337    26 May 2017 08:26:47
* temperature:  13-Jan-17
*     TA0 = 1.295807e-03
*     TA1 = 2.588888e-04
*     TA2 = 9.706836e-08
*     TA3 = 1.382757e-07
*     TOFFSET = 0.000000e+00
* conductivity:  13-Jan-17
*     G = -1.015047e+00
*     H = 1.449340e-01
*     I = -4.359138e-04
*     J = 5.256769e-05
*     CPCOR = -9.570000e-08
*     CTCOR = 3.250000e-06
*     CSLOPE = 1.000000e+00
* pressure S/N = 2882551, range = 160 psia:  11-Jan-17
*     PA0 = -1.431544e-01
*     PA1 = 4.887645e-04
*     PA2 = -6.439018e-12
*     PTCA0 = 5.240819e+05
*     PTCA1 = -1.723854e+01
*     PTCA2 = 1.164354e-01
*     PTCB0 = 2.491288e+01
*     PTCB1 = -1.025000e-03
*     PTCB2 = 0.000000e+00
*     PTEMPA0 = -6.474687e+01
*     PTEMPA1 = 5.145625e+01
*     PTEMPA2 = -2.579592e-01
*     POFFSET = 0.000000e+00
* volt 0: offset = -4.766105e-02, slope = 1.249330e+00
* volt 1: offset = -4.904947e-02, slope = 1.248985e+00
* volt 2: offset = -4.772842e-02, slope = 1.248965e+00
* volt 3: offset = -4.803053e-02, slope = 1.249328e+00
* volt 4: offset = -4.743158e-02, slope = 1.248557e+00
* volt 5: offset = -4.724737e-02, slope = 1.251092e+00
*     EXTFREQSF = 9.999918e-01
* dh
* cast  20 23 May 2017 13:21:32 samples 296412 to 298079, avg = 1, stop = mag switch

* S>
# nquan = 12
# nvalues = 982                                   
# units = specified
# name 0 = depFM: Depth [fresh water, m]
# name 1 = tv290C: Temperature [ITS-90, deg C]
# name 2 = c0uS/cm: Conductivity [uS/cm]
# name 3 = specc: Specific Conductance [uS/cm]
# name 4 = sbeox0Mg/L: Oxygen, SBE 43 [mg/l]
# name 5 = sbeox0PS: Oxygen, SBE 43 [% saturation]
# name 6 = par: PAR/Irradiance, Biospherical/Licor
# name 7 = CStarAt0: Beam Attenuation, WET Labs C-Star [1/m]
# name 8 = CStarTr0: Beam Transmission, WET Labs C-Star [%]
# name 9 = chloroflTC0: Chlorophyll, Turner Cyclops [ug/l]
# name 10 = phycyflTC0: Phycocyanin, Turner Cyclops [RFU]
# name 11 = flag:  0.000e+00
# span 0 =     -0.297,     21.400                 
# span 1 =     9.6923,    16.0465                 
# span 2 =   5.609212, 211.395499                 
# span 3 =      6.850,    286.449                 
# span 4 =    6.89020,   10.51717                 
# span 5 =   65.39572,   99.61685                 
# span 6 = 2.6975e+00, 4.0065e+03                 
# span 7 =     0.0717,    15.0847                 
# span 8 =     2.3025,    98.2224                 
# span 9 =     0.0000,     1.3645                 
# span 10 =     0.0000,     0.9256                
# span 11 = 0.0000e+00, 0.0000e+00                
# interval = seconds: 0.25
# start_time = May 23 2017 13:21:32 [Instrument's time stamp, header]
# bad_flag = -9.990e-29
# <Sensors count="9" >
#   <sensor Channel="1" >
#     <!-- Count, Temperature -->
#     <TemperatureSensor SensorID="58" >
#       <SerialNumber>6337</SerialNumber>
#       <CalibrationDate>13-Jan-17</CalibrationDate>
#       <A0>1.29580686e-003</A0>
#       <A1>2.58888790e-004</A1>
#       <A2>9.70683569e-008</A2>
#       <A3>1.38275720e-007</A3>
#       <Slope>1.00000000</Slope>
#       <Offset>0.0000</Offset>
#     </TemperatureSensor>
#   </sensor>
#   <sensor Channel="2" >
#     <!-- Frequency 0, Conductivity -->
#     <ConductivitySensor SensorID="3" >
#       <SerialNumber>6337</SerialNumber>
#       <CalibrationDate>13-Jan-17</CalibrationDate>
#       <UseG_J>1</UseG_J>
#       <!-- Cell const and series R are applicable only for wide range sensors. -->
#       <SeriesR>0.0000</SeriesR>
#       <CellConst>2000.0000</CellConst>
#       <ConductivityType>0</ConductivityType>
#       <Coefficients equation="0" >
#         <A>0.00000000e+000</A>
#         <B>0.00000000e+000</B>
#         <C>0.00000000e+000</C>
#         <D>0.00000000e+000</D>
#         <M>0.0</M>
#         <CPcor>-9.57000000e-008</CPcor>
#       </Coefficients>
#       <Coefficients equation="1" >
#         <G>-1.01504657e+000</G>
#         <H>1.44933984e-001</H>
#         <I>-4.35913838e-004</I>
#         <J>5.25676850e-005</J>
#         <CPcor>-9.57000000e-008</CPcor>
#         <CTcor>3.2500e-006</CTcor>
#         <!-- WBOTC not applicable unless ConductivityType = 1. -->
#         <WBOTC>0.00000000e+000</WBOTC>
#       </Coefficients>
#       <Slope>1.00000000</Slope>
#       <Offset>0.00000</Offset>
#     </ConductivitySensor>
#   </sensor>
#   <sensor Channel="3" >
#     <!-- Count, Pressure, Strain Gauge -->
#     <PressureSensor SensorID="46" >
#       <SerialNumber>6337</SerialNumber>
#       <CalibrationDate>11-Jan-17</CalibrationDate>
#       <PA0>-1.43154376e-001</PA0>
#       <PA1>4.88764480e-004</PA1>
#       <PA2>-6.43901847e-012</PA2>
#       <PTEMPA0>-6.47468750e+001</PTEMPA0>
#       <PTEMPA1>5.14562526e+001</PTEMPA1>
#       <PTEMPA2>-2.57959185e-001</PTEMPA2>
#       <PTCA0>5.24081949e+005</PTCA0>
#       <PTCA1>-1.72385379e+001</PTCA1>
#       <PTCA2>1.16435406e-001</PTCA2>
#       <PTCB0>2.49128750e+001</PTCB0>
#       <PTCB1>-1.02500000e-003</PTCB1>
#       <PTCB2>0.00000000e+000</PTCB2>
#       <Offset>0.000000</Offset>
#     </PressureSensor>
#   </sensor>
#   <sensor Channel="4" >
#     <!-- A/D voltage 0, Oxygen, SBE 43 -->
#     <OxygenSensor SensorID="38" >
#       <SerialNumber>2361</SerialNumber>
#       <CalibrationDate>20-Jan-17</CalibrationDate>
#       <Use2007Equation>1</Use2007Equation>
#       <CalibrationCoefficients equation="0" >
#         <!-- Coefficients for Owens-Millard equation. -->
#         <Boc>0.0000</Boc>
#         <Soc>0.0000e+000</Soc>
#         <offset>0.0000</offset>
#         <Pcor>0.00e+000</Pcor>
#         <Tcor>0.0000</Tcor>
#         <Tau>0.0</Tau>
#       </CalibrationCoefficients>
#       <CalibrationCoefficients equation="1" >
#         <!-- Coefficients for Sea-Bird equation - SBE calibration in 2007 and later. -->
#         <Soc>3.9698e-001</Soc>
#         <offset>-0.4986</offset>
#         <A>-3.9823e-003</A>
#         <B> 2.4447e-004</B>
#         <C>-3.3613e-006</C>
#         <D0> 2.5826e+000</D0>
#         <D1> 1.92634e-004</D1>
#         <D2>-4.64803e-002</D2>
#         <E> 3.6000e-002</E>
#         <Tau20> 1.0800</Tau20>
#         <H1>-3.3000e-002</H1>
#         <H2> 5.0000e+003</H2>
#         <H3> 1.4500e+003</H3>
#       </CalibrationCoefficients>
#     </OxygenSensor>
#   </sensor>
#   <sensor Channel="5" >
#     <!-- A/D voltage 1, Free -->
#   </sensor>
#   <sensor Channel="6" >
#     <!-- A/D voltage 2, PAR/Irradiance, Biospherical/Licor -->
#     <PAR_BiosphericalLicorChelseaSensor SensorID="42" >
#       <SerialNumber>70234</SerialNumber>
#       <CalibrationDate>11/29/16</CalibrationDate>
#       <M>1.00000000</M>
#       <B>0.00000000</B>
#       <CalibrationConstant>10917030568.00000000</CalibrationConstant>
#       <Multiplier>1.00000000</Multiplier>
#       <Offset>-0.09353959</Offset>
#     </PAR_BiosphericalLicorChelseaSensor>
#   </sensor>
#   <sensor Channel="7" >
#     <!-- A/D voltage 3, Transmissometer, WET Labs C-Star -->
#     <WET_LabsCStar SensorID="71" >
#       <SerialNumber>CST-484PR</SerialNumber>
#       <CalibrationDate>12/23/16</CalibrationDate>
#       <M>21.5610</M>
#       <B>-1.2721</B>
#       <PathLength>0.250</PathLength>
#     </WET_LabsCStar>
#   </sensor>
#   <sensor Channel="8" >
#     <!-- A/D voltage 4, Fluorometer, Turner Cyclops -->
#     <Fluorometer SensorID="68" >
#       <SerialNumber></SerialNumber>
#       <CalibrationDate></CalibrationDate>
#       <ScaleFactor>1.00000000e+000</ScaleFactor>
#       <Offset>0.00000000e+000</Offset>
#       <!-- 1 = C, Chlorophyll -->
#       <!-- 2 = R, Rhodamine -->
#       <!-- 3 = F, Fluorescein -->
#       <!-- 4 = P, Phycocyanin -->
#       <!-- 5 = E, Phycoerythrin -->
#       <!-- 6 = U, CDOM -->
#       <!-- 7 = O, CrudeOil -->
#       <!-- 8 = B, OpticalBrightness -->
#       <!-- 9 = T, Turbidity -->
#       <!-- 10 = G, Refined Fuels -->
#       <MeasuredParameter>4</MeasuredParameter>
#     </Fluorometer>
#   </sensor>
#   <sensor Channel="9" >
#     <!-- A/D voltage 5, Fluorometer, Turner Cyclops, 2 -->
#     <Fluorometer SensorID="68" >
#       <SerialNumber></SerialNumber>
#       <CalibrationDate></CalibrationDate>
#       <ScaleFactor>1.00000000e+000</ScaleFactor>
#       <Offset>0.00000000e+000</Offset>
#       <!-- 1 = C, Chlorophyll -->
#       <!-- 2 = R, Rhodamine -->
#       <!-- 3 = F, Fluorescein -->
#       <!-- 4 = P, Phycocyanin -->
#       <!-- 5 = E, Phycoerythrin -->
#       <!-- 6 = U, CDOM -->
#       <!-- 7 = O, CrudeOil -->
#       <!-- 8 = B, OpticalBrightness -->
#       <!-- 9 = T, Turbidity -->
#       <!-- 10 = G, Refined Fuels -->
#       <MeasuredParameter>1</MeasuredParameter>
#     </Fluorometer>
#   </sensor>
# </Sensors>
# datcnv_date = May 26 2017 13:03:39, 7.21d [datcnv_vars = 11]
# datcnv_in = C:\Users\Steve Constant\Desktop\CHRP2017\CTD\raw\CHRP7.hex C:\Users\Steve Constant\Desktop\CHRP2017\CTD\raw\SBE19plusV2_63372017.xmlcon
# datcnv_skipover = 0
# datcnv_ox_hysteresis_correction = yes
# datcnv_ox_tau_correction = yes
# file_type = ascii
*END*
     -0.294    16.0458   7.101633      8.650    9.38360   95.16472 7.9903e+02     0.2644    93.6049     0.6826     0.0000  0.000e+00
     -0.293    16.0438   6.952386      8.469    9.38557   95.18054 8.0467e+02     0.1916    95.3239     0.7086     0.0023  0.000e+00
     -0.294    16.0444   6.892687      8.396    9.37981   95.12347 8.0467e+02     0.2650    93.5900     0.7119     0.0115  0.000e+00
     -0.294    16.0456   6.832989      8.323    9.38221   95.15021 8.0750e+02     0.3329    92.0141     0.7214     0.0120  0.000e+00
     -0.294    16.0465   6.773290      8.250    9.38128   95.14255 8.0227e+02     0.3280    92.1276     0.7384     0.0069  0.000e+00
     -0.295    16.0464   6.743441      8.214    9.38400   95.16986 8.1477e+02     0.2939    92.9156     0.7562     0.0074  0.000e+00
     -0.295    16.0460   6.713592      8.177    9.38225   95.15140 8.6249e+02     0.2813    93.2101     0.7647     0.0114  0.000e+00
     -0.294    16.0462   6.653894      8.105    9.37907   95.11956 3.3199e+03     0.2918    92.9649     0.7511     0.0121  0.000e+00
     -0.294    16.0457   6.624045      8.068    9.37628   95.09023 3.1467e+03     0.3020    92.7281     0.7423     0.0177  0.000e+00
     -0.294    16.0412   6.653894      8.106    9.38396   95.15902 2.9752e+03     0.3021    92.7248     0.7419     0.0213  0.000e+00
     -0.294    16.0377   6.534499      7.961    9.37484   95.05941 3.0434e+03     0.2974    92.8350     0.7453     0.0211  0.000e+00
     -0.294    16.0360   6.594197      8.034    9.37596   95.06731 3.0493e+03     0.2948    92.8942     0.7395     0.0156  0.000e+00
     -0.293    16.0347   6.474802      7.889    9.37560   95.06108 3.1203e+03     0.2967    92.8498     0.7420     0.0037  0.000e+00
     -0.294    16.0283   6.534499      7.963    9.37828   95.07531 3.3257e+03     0.2990    92.7972     0.7485     0.0085  0.000e+00
     -0.294    16.0242   6.474802      7.891    9.38491   95.13423 3.1946e+03     0.2988    92.8021     0.7556     0.0132  0.000e+00
     -0.294    16.0200   6.534500      7.964    9.38379   95.11449 2.9080e+03     0.2979    92.8235     0.7613     0.0177  0.000e+00
     -0.295    16.0147   6.534500      7.965    9.38789   95.14532 8.3844e+02     0.2968    92.8482     0.7613     0.0188  0.000e+00
     -0.295    16.0088   6.415105      7.821    9.38563   95.11051 8.1205e+02     0.2972    92.8383     0.7594     0.0201  0.000e+00
     -0.294    16.0029   6.474803      7.895    9.39201   95.16329 8.1034e+02     0.2977    92.8268     0.7567     0.0156  0.000e+00
     -0.294    15.9982   6.474803      7.896    9.39207   95.15445 8.1419e+02     0.2968    92.8482     0.7476     0.0127  0.000e+00
     -0.294    15.9950   6.415106      7.824    9.38962   95.12308 8.1577e+02     0.2966    92.8531     0.7523     0.0116  0.000e+00
     -0.295    15.9932   6.444954      7.860    9.38596   95.08230 7.9875e+02     0.2961    92.8646     0.7684     0.0135  0.000e+00
     -0.295    15.9900   6.355409      7.752    9.38200   95.03579 7.6027e+02     0.2958    92.8712     0.7848     0.0134  0.000e+00
     -0.295    15.9839   6.355409      7.753    9.37834   94.98643 7.4624e+02     0.2955    92.8778     0.7792     0.0117  0.000e+00
     -0.295    15.9751   6.325561      7.718    9.37331   94.91768 7.4690e+02     0.2953    92.8827     0.7794     0.0167  0.000e+00
     -0.295    15.9648   6.295712      7.684    9.37039   94.86727 7.5442e+02     0.2948    92.8959     0.7758     0.0211  0.000e+00
     -0.295    15.9545   6.355409      7.758    9.36517   94.79376 7.6349e+02     0.2948    92.8959     0.7768     0.0182  0.000e+00
     -0.294    15.9456   6.325561      7.724    9.35982   94.72155 7.9343e+02     0.2947    92.8975     0.7624     0.0172  0.000e+00
     -0.294    15.9418   6.295713      7.688    9.35955   94.71121 7.9330e+02     0.2954    92.8811     0.7595     0.0210  0.000e+00
     -0.295    15.9422   6.265865      7.651    9.35639   94.68013 7.9931e+02     0.2951    92.8876     0.7725     0.0215  0.000e+00
     -0.295    15.9436   6.295713      7.688    9.35457   94.66461 7.9889e+02     0.2953    92.8843     0.7771     0.0213  0.000e+00
     -0.295    15.9455   6.265864      7.651    9.35518   94.67445 7.9665e+02     0.2962    92.8630     0.7955     0.0172  0.000e+00
     -0.295    15.9482   6.236016      7.614    9.35055   94.63301 7.9931e+02     0.2960    92.8679     0.7913     0.0131  0.000e+00
     -0.295    15.9512   6.206168      7.577    9.35881   94.72276 7.9987e+02     0.2954    92.8811     0.7816     0.0166  0.000e+00
     -0.295    15.9543   6.206168      7.576    9.35697   94.71042 8.1148e+02     0.2953    92.8843     0.7742     0.0208  0.000e+00
     -0.295    15.9544   6.176319      7.540    9.36305   94.77214 8.3903e+02     0.2955    92.8778     0.7731     0.0266  0.000e+00
     -0.295    15.9502   6.146471      7.504    9.36269   94.75994 8.3903e+02     0.2957    92.8745     0.7780     0.0256  0.000e+00
     -0.295    15.9494   6.116623      7.468    9.36292   94.76062 8.2906e+02     0.2965    92.8547     0.7861     0.0273  0.000e+00
     -0.295    15.9480   6.146471      7.505    9.36352   94.76395 8.2979e+02     0.2960    92.8679     0.7929     0.0257  0.000e+00
     -0.295    15.9461   6.086775      7.432    9.37132   94.83894 8.3755e+02     0.2955    92.8778     0.7948     0.0243  0.000e+00
     -0.295    15.9446   6.086775      7.432    9.37098   94.83253 8.3682e+02     0.2948    92.8942     0.7904     0.0181  0.000e+00
     -0.295    15.9453   6.027079      7.359    9.37471   94.87179 8.3286e+02     0.2951    92.8876     0.7885     0.0143  0.000e+00
     -0.295    15.9444   6.086775      7.432    9.38130   94.93666 8.4732e+02     0.2950    92.8909     0.7948     0.0167  0.000e+00
     -0.295    15.9392   6.027079      7.360    9.38620   94.97559 8.6053e+02     0.2944    92.9041     0.7990     0.0198  0.000e+00
     -0.295    15.9348   5.967384      7.288    9.38916   94.99662 1.6595e+03     0.2946    92.9008     0.7944     0.0217  0.000e+00
     -0.295    15.9327   5.967384      7.289    9.39507   95.05228 2.7597e+03     0.2943    92.9057     0.8010     0.0278  0.000e+00
     -0.295    15.9327   5.967384      7.289    9.39775   95.07939 2.9244e+03     0.2944    92.9041     0.7984     0.0230  0.000e+00
     -0.295    15.9319   5.967384      7.289    9.39682   95.06841 3.0205e+03     0.2943    92.9074     0.7848     0.0184  0.000e+00
     -0.296    15.9267   5.937536      7.253    9.40340   95.12448 3.0919e+03     0.2946    92.8991     0.7777     0.0169  0.000e+00
     -0.296    15.9246   5.967384      7.290    9.40191   95.10503 2.9883e+03     0.2956    92.8761     0.7806     0.0172  0.000e+00
     -0.296    15.9264   5.907688      7.217    9.40178   95.10730 2.9296e+03     0.2951    92.8876     0.7802     0.0213  0.000e+00
     -0.295    15.9284   5.967384      7.289    9.40041   95.09769 2.9622e+03     0.2948    92.8942     0.7863     0.0200  0.000e+00
     -0.296    15.9307   5.907688      7.216    9.39877   95.08576 3.2472e+03     0.2948    92.8959     0.7853     0.0199  0.000e+00
     -0.296    15.9328   5.847992      7.143    9.39662   95.06823 8.0537e+02     0.2948    92.8942     0.7957     0.0200  0.000e+00
     -0.295    15.9330   5.728602      6.997    9.39483   95.05049 7.3764e+02     0.2948    92.8942     0.8015     0.0174  0.000e+00
     -0.295    15.9343   5.728602      6.997    9.39500   95.05479 6.7241e+02     0.2946    92.9008     0.7004     0.0163  0.000e+00
     -0.295    15.9370   5.609212      6.850    9.39081   95.01775 6.3542e+02     0.2940    92.9140     0.4903     0.0140  0.000e+00
     -0.295    15.9400   5.668907      6.923    9.39106   95.02628 6.2567e+02     0.2949    92.8926     0.3272     0.0000  0.000e+00
     -0.296    15.9423   5.668907      6.922    9.38783   94.99828 6.1781e+02     0.2941    92.9123     0.2152     0.0000  0.000e+00
     -0.295    15.9434   5.728602      6.995    9.38395   94.96132 5.8055e+02     0.2938    92.9189     0.1387     0.0034  0.000e+00
     -0.296    15.9398   5.728602      6.996    9.38762   94.99124 5.3341e+02     0.2942    92.9090     0.0961     0.0140  0.000e+00
     -0.295    15.9357   5.728602      6.996    9.38494   94.95585 5.2210e+02     0.2943    92.9057     0.0716     0.0107  0.000e+00
     -0.296    15.9298   5.758449      7.034    9.38729   94.96758 5.2200e+02     0.2945    92.9024     0.0533     0.0103  0.000e+00
     -0.296    15.9261   5.788297      7.071    9.38456   94.93248 5.1853e+02     0.2944    92.9041     0.0416     0.0123  0.000e+00
     -0.296    15.9272   5.818145      7.107    9.38771   94.96661 5.3802e+02     0.2944    92.9041     0.0383     0.0110  0.000e+00
     -0.296    15.9272   5.788297      7.071    9.38867   94.97635 5.5991e+02     0.2940    92.9140     0.0344     0.0166  0.000e+00
     -0.296    15.9237   5.847992      7.144    9.39449   95.02835 5.6436e+02     0.2939    92.9156     0.0330     0.0287  0.000e+00
     -0.296    15.9204   5.877840      7.181    9.39378   95.01433 5.6565e+02     0.2938    92.9189     0.0315     0.0141  0.000e+00
     -0.295    15.9194   5.907688      7.218    9.39365   95.01111 5.5531e+02     0.2934    92.9271     0.0305     0.0074  0.000e+00
     -0.295    15.9206   5.967384      7.291    9.39499   95.02708 5.5336e+02     0.2933    92.9304     0.0311     0.0000  0.000e+00
     -0.296    15.9181   5.967384      7.291    9.39369   95.00887 5.5824e+02     0.2934    92.9271     0.0288     0.0011  0.000e+00
     -0.296    15.9176   5.907688      7.218    9.39556   95.02685 5.6100e+02     0.2930    92.9370     0.0300     0.0119  0.000e+00
