* Sea-Bird SBE19plus  Data File:
* FileName = C:\Users\haydenmh.UMROOT\Desktop\HABS DATA\7.13.20\SBE\RAW\SBE19plus_01906619_2020_07_13_0001.hex
* Software version 2.8.0.119
* Temperature SN = 6619
* Conductivity SN = 6619
* System UpLoad Time = Jul 13 2020 12:24:23
* <ApplicationData>
* <Seaterm232>
* <SoftwareVersion>2.8.0.119</SoftwareVersion>
* <BuildDate>07-Nov-2018</BuildDate>
* </Seaterm232>
* </ApplicationData>
* <InstrumentState>
* <HardwareData DeviceType='SBE19plus' SerialNumber='01906619'>
*
*    <Manufacturer>Sea-Bird Electronics, Inc.</Manufacturer>
*
*    <FirmwareVersion>2.5.2</FirmwareVersion>
*
*    <FirmwareDate>12 Mar 2013 11:50</FirmwareDate>
*
*    <CommandSetVersion>1.3</CommandSetVersion>
*
*    <PCBAssembly PCBSerialNum='20590' AssemblyNum='41054G'/>
*
*    <PCBAssembly PCBSerialNum='22204' AssemblyNum='41580B'/>
*
*    <PCBAssembly PCBSerialNum='20123' AssemblyNum='41606'/>
*
*    <PCBAssembly PCBSerialNum='20847' AssemblyNum='41059D'/>
*
*    <MfgDate>  30 JUL 2010</MfgDate>
*
*    <InternalSensors>
*
*       <Sensor id='Main Temperature'>
*
*          <type>temperature0</type>
*
*          <SerialNumber>01906619</SerialNumber>
*
*       </Sensor>
*
*       <Sensor id='Main Conductivity'>
*
*          <type>conductivity-0</type>
*
*          <SerialNumber>01906619</SerialNumber>
*
*       </Sensor>
*
*       <Sensor id='Main Pressure'>
*
*          <type>strain-0</type>
*
*          <SerialNumber>3097822</SerialNumber>
*
*       </Sensor>
*
*    </InternalSensors>
*
*    <ExternalSensors>
*
*       <Sensor id='volt 0'>
*
*          <type>not assigned</type>
*
*          <SerialNumber>not assigned</SerialNumber>
*
*       </Sensor>
*
*       <Sensor id='volt 1'>
*
*          <type>not assigned</type>
*
*          <SerialNumber>not assigned</SerialNumber>
*
*       </Sensor>
*
*       <Sensor id='volt 2'>
*
*          <type>not assigned</type>
*
*          <SerialNumber>not assigned</SerialNumber>
*
*       </Sensor>
*
*       <Sensor id='volt 3'>
*
*          <type>not assigned</type>
*
*          <SerialNumber>not assigned</SerialNumber>
*
*       </Sensor>
*
*       <Sensor id='volt 4'>
*
*          <type>not assigned</type>
*
*          <SerialNumber>not assigned</SerialNumber>
*
*       </Sensor>
*
*       <Sensor id='volt 5'>
*
*          <type>not assigned</type>
*
*          <SerialNumber>not assigned</SerialNumber>
*
*       </Sensor>
*
*       <Sensor id='serial'>
*
*          <type>not assigned</type>
*
*          <SerialNumber>not assigned</SerialNumber>
*
*       </Sensor>
*
*    </ExternalSensors>
*
* </HardwareData>
* <StatusData DeviceType='SBE19plus' SerialNumber='01906619'>
*
*    <DateTime>2020-07-13T16:26:34</DateTime>
*
*    <LoggingState>not logging</LoggingState>
*
*    <EventSummary numEvents='0'/>
*
*    <Power>
*
*       <vMain>13.2</vMain>
*
*       <vLith>8.2</vLith>
*
*       <iMain>62.5</iMain>
*
*       <iPump>31.9</iPump>
*
*       <iExt01> 4.7</iExt01>
*
*       <iExt2345>81.5</iExt2345>
*
*    </Power>
*
*    <MemorySummary>
*
*       <Bytes>59547</Bytes>
*
*       <Samples>2589</Samples>
*
*       <SamplesFree>2858199</SamplesFree>
*
*       <SampleLength>23</SampleLength>
*
*       <Profiles>5</Profiles>
*
*    </MemorySummary>
*
* </StatusData>
* <ConfigurationData DeviceType='SBE19plus' SerialNumber='01906619'>
*
*    <ProfileMode>
*
*       <ScansToAverage>1</ScansToAverage>
*
*       <MinimumCondFreq>0</MinimumCondFreq>
*
*       <PumpDelay>30</PumpDelay>
*
*       <AutoRun>no</AutoRun>
*
*       <IgnoreSwitch>no</IgnoreSwitch>
*
*    </ProfileMode>
*
*    <Battery>
*
*       <Type>alkaline</Type>
*
*       <CutOff>7.5</CutOff>
*
*    </Battery>
*
*    <DataChannels>
*
*       <ExtVolt0>yes</ExtVolt0>
*
*       <ExtVolt1>yes</ExtVolt1>
*
*       <ExtVolt2>yes</ExtVolt2>
*
*       <ExtVolt3>yes</ExtVolt3>
*
*       <ExtVolt4>yes</ExtVolt4>
*
*       <ExtVolt5>yes</ExtVolt5>
*
*       <SBE38>no</SBE38>
*
*       <WETLABS>no</WETLABS>
*
*       <OPTODE>no</OPTODE>
*
*       <SBE63>no</SBE63>
*
*       <GTD>no</GTD>
*
*    </DataChannels>
*
*    <EchoCharacters>yes</EchoCharacters>
*
*    <OutputExecutedTag>yes</OutputExecutedTag>
*
*    <OutputFormat>raw HEX</OutputFormat>
*
* </ConfigurationData>
* <CalibrationCoefficients DeviceType='SBE19plus' SerialNumber='01906619'>
*
*    <Calibration format='TEMP1' id='Main Temperature'>
*
*       <SerialNum>01906619</SerialNum>
*
*       <CalDate>22-Jan-20</CalDate>
*
*       <TA0>1.286198e-03</TA0>
*
*       <TA1>2.590090e-04</TA1>
*
*       <TA2>-1.314748e-07</TA2>
*
*       <TA3>1.427154e-07</TA3>
*
*       <TOFFSET>0.000000e+00</TOFFSET>
*
*    </Calibration>
*
*    <Calibration format='WBCOND0' id='Main Conductivity'>
*
*       <SerialNum>01906619</SerialNum>
*
*       <CalDate>22-Jan-20</CalDate>
*
*       <G>-1.021244e+00</G>
*
*       <H>1.446258e-01</H>
*
*       <I>-1.924818e-04</I>
*
*       <J>3.517041e-05</J>
*
*       <CPCOR>-9.570000e-08</CPCOR>
*
*       <CTCOR>3.250000e-06</CTCOR>
*
*       <CSLOPE>1.000000e+00</CSLOPE>
*
*    </Calibration>
*
*    <Calibration format='STRAIN0' id='Main Pressure'>
*
*       <SerialNum>3097822</SerialNum>
*
*       <CalDate>17-Jan-20</CalDate>
*
*       <PA0>-6.046974e-02</PA0>
*
*       <PA1>1.551346e-03</PA1>
*
*       <PA2>6.096294e-12</PA2>
*
*       <PTCA0>5.249213e+05</PTCA0>
*
*       <PTCA1>1.137195e+00</PTCA1>
*
*       <PTCA2>-1.340391e-01</PTCA2>
*
*       <PTCB0>2.495187e+01</PTCB0>
*
*       <PTCB1>-6.250000e-04</PTCB1>
*
*       <PTCB2>0.000000e+00</PTCB2>
*
*       <PTEMPA0>-6.560702e+01</PTEMPA0>
*
*       <PTEMPA1>5.169564e+01</PTEMPA1>
*
*       <PTEMPA2>-2.846411e-01</PTEMPA2>
*
*       <POFFSET>0.000000e+00</POFFSET>
*
*       <PRANGE>5.080000e+02</PRANGE>
*
*    </Calibration>
*
*    <Calibration format='VOLT0' id='Volt 0'>
*
*       <OFFSET>-4.714526e-02</OFFSET>
*
*       <SLOPE>1.246485e+00</SLOPE>
*
*    </Calibration>
*
*    <Calibration format='VOLT0' id='Volt 1'>
*
*       <OFFSET>-4.759684e-02</OFFSET>
*
*       <SLOPE>1.247567e+00</SLOPE>
*
*    </Calibration>
*
*    <Calibration format='VOLT0' id='Volt 2'>
*
*       <OFFSET>-4.757684e-02</OFFSET>
*
*       <SLOPE>1.247228e+00</SLOPE>
*
*    </Calibration>
*
*    <Calibration format='VOLT0' id='Volt 3'>
*
*       <OFFSET>-4.769790e-02</OFFSET>
*
*       <SLOPE>1.246365e+00</SLOPE>
*
*    </Calibration>
*
*    <Calibration format='VOLT0' id='Volt 4'>
*
*       <OFFSET>-4.708632e-02</OFFSET>
*
*       <SLOPE>1.247071e+00</SLOPE>
*
*    </Calibration>
*
*    <Calibration format='VOLT0' id='Volt 5'>
*
*       <OFFSET>-4.747369e-02</OFFSET>
*
*       <SLOPE>1.247047e+00</SLOPE>
*
*    </Calibration>
*
*    <Calibration format='FREQ0' id='external frequency channel'>
*
*       <EXTFREQSF>9.999977e-01</EXTFREQSF>
*
*    </Calibration>
*
* </CalibrationCoefficients>
* <EventCounters DeviceType='SBE19plus' SerialNumber='01906619'>
*
*    <EventSummary numEvents='0'/>
*
* </EventCounters></InstrumentState>
* <Headers>
*
* cast   1 13 Jul 2020 12:00:11 samples 1 to 525, avg = 1, stop = mag switch
*
# nquan = 12
# nvalues = 424                                   
# units = specified
# name 0 = depFM: Depth [fresh water, m]
# name 1 = tv290C: Temperature [ITS-90, deg C]
# name 2 = c0uS/cm: Conductivity [uS/cm]
# name 3 = specc: Specific Conductance [uS/cm]
# name 4 = par: PAR/Irradiance, Biospherical/Licor
# name 5 = sbeox0Mg/L: Oxygen, SBE 43 [mg/l]
# name 6 = sbeox0PS: Oxygen, SBE 43 [% saturation]
# name 7 = CStarAt0: Beam Attenuation, WET Labs C-Star [1/m]
# name 8 = CStarTr0: Beam Transmission, WET Labs C-Star [%]
# name 9 = phycyflTC0: Phycocyanin, Turner Cyclops [RFU]
# name 10 = flECO-AFL: Fluorescence, WET Labs ECO-AFL/FL [mg/m^3]
# name 11 = flag:  0.000e+00
# span 0 =     -0.318,      5.187                 
# span 1 =    20.8176,    26.6364                 
# span 2 =   7.240783, 327.854754                 
# span 3 =      7.899,    335.521                 
# span 4 = 4.4857e+00, 1.9473e+03                 
# span 5 =     5.5661,     8.9661                 
# span 6 =     69.406,    110.689                 
# span 7 =     0.0347,    14.9206                 
# span 8 =     2.3989,    99.1351                 
# span 9 =     0.0000,     1.5686                 
# span 10 =     0.3624,     5.6633                
# span 11 = 0.0000e+00, 0.0000e+00                
# interval = seconds: 0.25
# start_time = Jul 13 2020 12:00:11 [Instrument's time stamp, header]
# bad_flag = -9.990e-29
# <Sensors count="9" >
#   <sensor Channel="1" >
#     <!-- Count, Temperature -->
#     <TemperatureSensor SensorID="58" >
#       <SerialNumber>6619</SerialNumber>
#       <CalibrationDate>22-Jan-20</CalibrationDate>
#       <A0>1.28619833e-003</A0>
#       <A1>2.59009007e-004</A1>
#       <A2>-1.31474778e-007</A2>
#       <A3>1.42715415e-007</A3>
#       <Slope>1.00000000</Slope>
#       <Offset>0.0000</Offset>
#     </TemperatureSensor>
#   </sensor>
#   <sensor Channel="2" >
#     <!-- Frequency 0, Conductivity -->
#     <ConductivitySensor SensorID="3" >
#       <SerialNumber>6619</SerialNumber>
#       <CalibrationDate>22-Jan-20</CalibrationDate>
#       <UseG_J>1</UseG_J>
#       <!-- Cell const and series R are applicable only for wide range sensors. -->
#       <SeriesR>0.0000</SeriesR>
#       <CellConst>2000.0000</CellConst>
#       <ConductivityType>0</ConductivityType>
#       <Coefficients equation="0" >
#         <A>0.00000000e+000</A>
#         <B>0.00000000e+000</B>
#         <C>0.00000000e+000</C>
#         <D>0.00000000e+000</D>
#         <M>0.0</M>
#         <CPcor>-9.57000000e-008</CPcor>
#       </Coefficients>
#       <Coefficients equation="1" >
#         <G>-1.02124413e+000</G>
#         <H>1.44625778e-001</H>
#         <I>-1.92481830e-004</I>
#         <J>3.51704133e-005</J>
#         <CPcor>-9.57000000e-008</CPcor>
#         <CTcor>3.2500e-006</CTcor>
#         <!-- WBOTC not applicable unless ConductivityType = 1. -->
#         <WBOTC>0.00000000e+000</WBOTC>
#       </Coefficients>
#       <Slope>1.00000000</Slope>
#       <Offset>0.00000</Offset>
#     </ConductivitySensor>
#   </sensor>
#   <sensor Channel="3" >
#     <!-- Count, Pressure, Strain Gauge -->
#     <PressureSensor SensorID="46" >
#       <SerialNumber>6619</SerialNumber>
#       <CalibrationDate>17-Jan-20</CalibrationDate>
#       <PA0>-6.04697398e-002</PA0>
#       <PA1>1.55134611e-003</PA1>
#       <PA2>6.09629416e-012</PA2>
#       <PTEMPA0>-6.56070203e+001</PTEMPA0>
#       <PTEMPA1>5.16956414e+001</PTEMPA1>
#       <PTEMPA2>-2.84641077e-001</PTEMPA2>
#       <PTCA0>5.24921286e+005</PTCA0>
#       <PTCA1>1.13719502e+000</PTCA1>
#       <PTCA2>-1.34039056e-001</PTCA2>
#       <PTCB0>2.49518750e+001</PTCB0>
#       <PTCB1>-6.25000000e-004</PTCB1>
#       <PTCB2>0.00000000e+000</PTCB2>
#       <Offset>0.000000</Offset>
#     </PressureSensor>
#   </sensor>
#   <sensor Channel="4" >
#     <!-- A/D voltage 0, Oxygen, SBE 43 -->
#     <OxygenSensor SensorID="38" >
#       <SerialNumber>2360</SerialNumber>
#       <CalibrationDate>28-Jan-20</CalibrationDate>
#       <Use2007Equation>1</Use2007Equation>
#       <CalibrationCoefficients equation="0" >
#         <!-- Coefficients for Owens-Millard equation. -->
#         <Boc>0.0000</Boc>
#         <Soc>0.0000e+000</Soc>
#         <offset>0.0000</offset>
#         <Pcor>0.00e+000</Pcor>
#         <Tcor>0.0000</Tcor>
#         <Tau>0.0</Tau>
#       </CalibrationCoefficients>
#       <CalibrationCoefficients equation="1" >
#         <!-- Coefficients for Sea-Bird equation - SBE calibration in 2007 and later. -->
#         <Soc>4.3967e-001</Soc>
#         <offset>-0.4873</offset>
#         <A>-4.2797e-003</A>
#         <B> 1.4753e-004</B>
#         <C>-1.4475e-006</C>
#         <D0> 2.5826e+000</D0>
#         <D1> 1.92634e-004</D1>
#         <D2>-4.64803e-002</D2>
#         <E> 3.6000e-002</E>
#         <Tau20> 1.0300</Tau20>
#         <H1>-3.3000e-002</H1>
#         <H2> 5.0000e+003</H2>
#         <H3> 1.4500e+003</H3>
#       </CalibrationCoefficients>
#     </OxygenSensor>
#   </sensor>
#   <sensor Channel="5" >
#     <!-- A/D voltage 1, Free -->
#   </sensor>
#   <sensor Channel="6" >
#     <!-- A/D voltage 2, Fluorometer, WET Labs ECO-AFL/FL -->
#     <FluoroWetlabECO_AFL_FL_Sensor SensorID="20" >
#       <SerialNumber>2581</SerialNumber>
#       <CalibrationDate>12/19/19</CalibrationDate>
#       <ScaleFactor>2.40000000e+001</ScaleFactor>
#       <!-- Dark output -->
#       <Vblank>0.0290</Vblank>
#     </FluoroWetlabECO_AFL_FL_Sensor>
#   </sensor>
#   <sensor Channel="7" >
#     <!-- A/D voltage 3, Transmissometer, WET Labs C-Star -->
#     <WET_LabsCStar SensorID="71" >
#       <SerialNumber>330-PR</SerialNumber>
#       <CalibrationDate>12/30/19</CalibrationDate>
#       <M>21.6450</M>
#       <B>-1.2771</B>
#       <PathLength>0.250</PathLength>
#     </WET_LabsCStar>
#   </sensor>
#   <sensor Channel="8" >
#     <!-- A/D voltage 4, PAR/Irradiance, Biospherical/Licor -->
#     <PAR_BiosphericalLicorChelseaSensor SensorID="42" >
#       <SerialNumber>70411</SerialNumber>
#       <CalibrationDate>1/17/20</CalibrationDate>
#       <M>1.00000000</M>
#       <B>0.00000000</B>
#       <CalibrationConstant>10582010582.00000000</CalibrationConstant>
#       <Multiplier>1.00000000</Multiplier>
#       <Offset>-0.09515504</Offset>
#     </PAR_BiosphericalLicorChelseaSensor>
#   </sensor>
#   <sensor Channel="9" >
#     <!-- A/D voltage 5, Fluorometer, Turner Cyclops -->
#     <Fluorometer SensorID="68" >
#       <SerialNumber>2101045</SerialNumber>
#       <CalibrationDate></CalibrationDate>
#       <ScaleFactor>1.00000000e+000</ScaleFactor>
#       <Offset>0.00000000e+000</Offset>
#       <!-- 1 = C, Chlorophyll -->
#       <!-- 2 = R, Rhodamine -->
#       <!-- 3 = F, Fluorescein -->
#       <!-- 4 = P, Phycocyanin -->
#       <!-- 5 = E, Phycoerythrin -->
#       <!-- 6 = U, CDOM -->
#       <!-- 7 = O, CrudeOil -->
#       <!-- 8 = B, OpticalBrightness -->
#       <!-- 9 = T, Turbidity -->
#       <!-- 10 = G, Refined Fuels -->
#       <MeasuredParameter>4</MeasuredParameter>
#     </Fluorometer>
#   </sensor>
# </Sensors>
# datcnv_date = Jul 13 2020 12:30:47, 7.26.7.129 [datcnv_vars = 11]
# datcnv_in = C:\Users\haydenmh.UMROOT\Desktop\HABS DATA\7.13.20\SBE\RAW\SBE19plus_01906619_2020_07_13_0001.hex C:\Users\haydenmh.UMROOT\Desktop\HABS DATA\6619HABs2020.xmlcon
# datcnv_skipover = 0
# datcnv_ox_hysteresis_correction = yes
# datcnv_ox_tau_correction = yes
# file_type = ascii
*END*
     -0.313    20.8249   7.450815      8.129 1.9473e+03     8.7600     97.933     0.0347    99.1351     0.0140     1.9664  0.000e+00
     -0.313    20.8250   7.360801      8.031 1.9415e+03     8.7574     97.904     0.1084    97.3268     0.0157     1.9591  0.000e+00
     -0.313    20.8252   7.450815      8.129 1.9300e+03     8.7562     97.892     0.1392    96.5804     0.0155     1.9755  0.000e+00
     -0.315    20.8252   7.450815      8.129 1.9249e+03     8.7584     97.916     0.1375    96.6200     0.0158     1.9078  0.000e+00
     -0.316    20.8249   7.450815      8.129 1.8997e+03     8.7623     97.959     0.1225    96.9833     0.0156     1.9005  0.000e+00
     -0.316    20.8254   7.390806      8.063 1.8755e+03     8.7630     97.968     0.1052    97.4044     0.0150     1.9005  0.000e+00
     -0.313    20.8255   7.450815      8.129 1.8545e+03     8.7625     97.963     0.0931    97.7000     0.0154     1.8968  0.000e+00
     -0.314    20.8257   7.450815      8.129 1.8637e+03     8.7603     97.938     0.0866    97.8586     0.0157     1.9334  0.000e+00
     -0.312    20.8259   7.420810      8.096 1.8539e+03     8.7579     97.912     0.0851    97.8949     0.0159     1.9353  0.000e+00
     -0.313    20.8260   7.450815      8.129 1.8509e+03     8.7628     97.967     0.0869    97.8503     0.0169     1.9353  0.000e+00
     -0.316    20.8260   7.450815      8.129 1.8457e+03     8.7616     97.954     0.0894    97.7892     0.0173     1.9408  0.000e+00
     -0.316    20.8260   7.570834      8.260 1.8254e+03     8.7594     97.929     0.0907    97.7578     0.0176     1.9444  0.000e+00
     -0.314    20.8260   7.240783      7.899 1.7770e+03     8.7614     97.951     0.0898    97.7809     0.0198     1.9371  0.000e+00
     -0.314    20.8261   7.450815      8.129 1.7770e+03     8.7617     97.955     0.0900    97.7743     0.0198     1.9463  0.000e+00
     -0.314    20.8265   7.240783      7.899 1.7717e+03     8.7624     97.963     0.0908    97.7562     0.0189     1.9316  0.000e+00
     -0.313    20.8264   7.510825      8.194 1.7717e+03     8.7614     97.952     0.0880    97.8239     0.0169     1.7540  0.000e+00
     -0.315    20.8264   7.510825      8.194 1.6611e+03     8.7646     97.988     0.0890    97.8008     0.0220     1.7650  0.000e+00
     -0.315    20.8264   7.450815      8.129 1.5362e+03     8.7608     97.945     0.0883    97.8173     0.1245     1.7650  0.000e+00
     -0.315    20.8265   7.510825      8.194 1.7332e+03     8.7571     97.904     0.0883    97.8173     0.0933     1.7595  0.000e+00
     -0.314    20.8262   7.690854      8.390 1.7767e+03     8.7651     97.993     0.0870    97.8486     0.2304     0.4887  0.000e+00
     -0.317    20.8250   7.570834      8.260 1.7789e+03     8.7603     97.937     0.0860    97.8734     0.1972     0.4924  0.000e+00
     -0.314    20.8244   7.810875      8.522 1.7783e+03     8.7628     97.964     0.0856    97.8833     0.1353     0.4850  0.000e+00
     -0.315    20.8241   7.810875      8.522 1.6442e+03     8.7625     97.959     0.0846    97.9081     0.0873     0.4777  0.000e+00
     -0.315    20.8235   8.230953      8.980 1.5741e+03     8.7656     97.994     0.0847    97.9048     0.0616     0.4063  0.000e+00
     -0.314    20.8237   8.891093      9.700 1.7627e+03     8.7614     97.947     0.0846    97.9081     0.0435     0.3990  0.000e+00
     -0.317    20.8243   9.521247     10.388 1.7798e+03     8.7633     97.969     0.0844    97.9130     0.0348     0.4045  0.000e+00
     -0.318    20.8251  10.391491     11.337 1.7534e+03     8.7615     97.951     0.0844    97.9114     0.0593     0.3917  0.000e+00
     -0.316    20.8259  12.012045     13.105 1.6828e+03     8.7613     97.951     0.0841    97.9197     0.0859     0.4100  0.000e+00
     -0.315    20.8232  13.722769     14.972 1.5816e+03     8.7597     97.928     0.0845    97.9097     0.1099     0.3990  0.000e+00
     -0.315    20.8188  14.833316     16.185 1.4035e+03     8.7602     97.926     0.0850    97.8965     0.1199     0.3953  0.000e+00
     -0.315    20.8176  14.593193     15.924 1.5081e+03     8.7597     97.917     0.0860    97.8718     0.0000     0.3935  0.000e+00
     -0.314    20.8179  13.962883     15.236 1.3859e+03     8.7623     97.947     0.0874    97.8387     0.0000     0.4045  0.000e+00
     -0.314    20.8188  13.452646     14.679 1.3460e+03     8.7604     97.927     0.0870    97.8486     0.0000     0.4136  0.000e+00
     -0.316    20.8193  13.452646     14.678 1.3536e+03     8.7640     97.968     0.0870    97.8486     0.0000     0.4045  0.000e+00
     -0.314    20.8198  13.662742     14.908 1.4132e+03     8.7629     97.957     0.0881    97.8206     0.0000     0.3953  0.000e+00
     -0.314    20.8202  14.202998     15.497 1.4978e+03     8.7644     97.974     0.0866    97.8586     0.0961     0.5913  0.000e+00
